# Temperature [K], Thermal Conductivity (xx, xy, xz, yx, yy, yz, zx, zy, zz) [W/mK]
      0.00         0.0000         0.0000         0.0000         0.0000         0.0000         0.0000         0.0000         0.0000         0.0000
     10.00        25.3167         0.0007         0.0007         0.0007        25.3167         0.0007         0.0007         0.0007        25.3167
     20.00       725.0835       648.5708       648.5708       648.5708       725.0835       648.5708       648.5708       648.5708       725.0835
     30.00     47797.6997     47684.0481     47684.0481     47684.0481     47797.6997     47684.0481     47684.0481     47684.0481     47797.6997
     40.00    331412.5998    331298.0740    331298.0740    331298.0740    331412.5998    331298.0740    331298.0740    331298.0740    331412.5998
     50.00    924153.1437    924046.1986    924046.1986    924046.1986    924153.1437    924046.1986    924046.1986    924046.1986    924153.1437
     60.00   1669527.7524   1669428.2356   1669428.2356   1669428.2356   1669527.7524   1669428.2356   1669428.2356   1669428.2356   1669527.7524
     70.00   2388540.8406   2388447.7381   2388447.7381   2388447.7381   2388540.8406   2388447.7381   2388447.7381   2388447.7381   2388540.8406
     80.00   2983694.4426   2983607.0105   2983607.0105   2983607.0105   2983694.4426   2983607.0105   2983607.0105   2983607.0105   2983694.4426
     90.00   3428915.6453   3428833.3567   3428833.3567   3428833.3567   3428915.6453   3428833.3567   3428833.3567   3428833.3567   3428915.6453
    100.00   3735601.4294   3735523.8615   3735523.8615   3735523.8615   3735601.4294   3735523.8615   3735523.8615   3735523.8615   3735601.4294
    110.00   3928547.8800   3928474.6589   3928474.6589   3928474.6589   3928547.8800   3928474.6589   3928474.6589   3928474.6589   3928547.8800
    120.00   4033864.8350   4033795.6154   4033795.6154   4033795.6154   4033864.8350   4033795.6154   4033795.6154   4033795.6154   4033864.8350
    130.00   4074248.2284   4074182.6891   4074182.6891   4074182.6891   4074248.2284   4074182.6891   4074182.6891   4074182.6891   4074248.2284
    140.00   4067820.4685   4067758.3117   4067758.3117   4067758.3117   4067820.4685   4067758.3117   4067758.3117   4067758.3117   4067820.4685
    150.00   4028424.4740   4028365.4254   4028365.4254   4028365.4254   4028424.4740   4028365.4254   4028365.4254   4028365.4254   4028424.4740
    160.00   3966371.4495   3966315.2584   3966315.2584   3966315.2584   3966371.4496   3966315.2584   3966315.2584   3966315.2584   3966371.4496
    170.00   3889225.6605   3889172.0986   3889172.0986   3889172.0986   3889225.6605   3889172.0987   3889172.0986   3889172.0987   3889225.6605
    180.00   3802480.4680   3802429.3285   3802429.3285   3802429.3285   3802480.4681   3802429.3285   3802429.3285   3802429.3285   3802480.4681
    190.00   3710094.5209   3710045.6164   3710045.6164   3710045.6164   3710094.5209   3710045.6164   3710045.6164   3710045.6164   3710094.5209
    200.00   3614899.8264   3614852.9877   3614852.9877   3614852.9877   3614899.8264   3614852.9877   3614852.9877   3614852.9877   3614899.8264
    210.00   3518905.5512   3518860.6252   3518860.6252   3518860.6252   3518905.5512   3518860.6252   3518860.6252   3518860.6252   3518905.5512
    220.00   3423521.5481   3423478.3965   3423478.3965   3423478.3965   3423521.5481   3423478.3965   3423478.3965   3423478.3965   3423521.5481
    230.00   3329721.8503   3329680.3479   3329680.3479   3329680.3479   3329721.8503   3329680.3479   3329680.3479   3329680.3479   3329721.8503
    240.00   3238163.9622   3238123.9953   3238123.9953   3238123.9953   3238163.9622   3238123.9953   3238123.9953   3238123.9953   3238163.9622
    250.00   3149275.8607   3149237.3263   3149237.3263   3149237.3263   3149275.8607   3149237.3263   3149237.3263   3149237.3263   3149275.8607
    260.00   3063319.4941   3063282.2986   3063282.2986   3063282.2986   3063319.4941   3063282.2986   3063282.2986   3063282.2986   3063319.4941
    270.00   2980437.1862   2980401.2441   2980401.2441   2980401.2441   2980437.1862   2980401.2441   2980401.2441   2980401.2441   2980437.1862
    280.00   2900685.5960   2900650.8295   2900650.8295   2900650.8295   2900685.5960   2900650.8295   2900650.8295   2900650.8295   2900685.5960
    290.00   2824060.6010   2824026.9388   2824026.9388   2824026.9388   2824060.6010   2824026.9388   2824026.9388   2824026.9388   2824060.6010
    300.00   2750515.5438   2750482.9208   2750482.9208   2750482.9208   2750515.5438   2750482.9208   2750482.9208   2750482.9208   2750515.5438
    310.00   2679974.6138   2679942.9700   2679942.9700   2679942.9700   2679974.6139   2679942.9700   2679942.9700   2679942.9700   2679974.6139
    320.00   2612342.6515   2612311.9318   2612311.9318   2612311.9318   2612342.6515   2612311.9318   2612311.9318   2612311.9318   2612342.6515
    330.00   2547512.3166   2547482.4704   2547482.4704   2547482.4704   2547512.3166   2547482.4704   2547482.4704   2547482.4704   2547512.3166
    340.00   2485369.3096   2485340.2901   2485340.2901   2485340.2901   2485369.3096   2485340.2901   2485340.2901   2485340.2901   2485369.3096
    350.00   2425796.1514   2425767.9154   2425767.9154   2425767.9154   2425796.1515   2425767.9154   2425767.9154   2425767.9154   2425796.1515
    360.00   2368674.8953   2368647.4026   2368647.4026   2368647.4026   2368674.8953   2368647.4026   2368647.4026   2368647.4026   2368674.8953
    370.00   2313889.0471   2313862.2607   2313862.2607   2313862.2607   2313889.0471   2313862.2607   2313862.2607   2313862.2607   2313889.0471
    380.00   2261324.8989   2261298.7842   2261298.7842   2261298.7842   2261324.8989   2261298.7842   2261298.7842   2261298.7842   2261324.8989
    390.00   2210872.4276   2210846.9525   2210846.9525   2210846.9525   2210872.4276   2210846.9525   2210846.9525   2210846.9525   2210872.4276
    400.00   2162425.8728   2162401.0075   2162401.0075   2162401.0075   2162425.8728   2162401.0075   2162401.0075   2162401.0075   2162425.8728
    410.00   2115884.0789   2115859.7955   2115859.7955   2115859.7955   2115884.0789   2115859.7955   2115859.7955   2115859.7955   2115884.0789
    420.00   2071150.6646   2071126.9370   2071126.9370   2071126.9370   2071150.6646   2071126.9370   2071126.9370   2071126.9370   2071150.6646
    430.00   2028134.0671   2028110.8708   2028110.8708   2028110.8708   2028134.0671   2028110.8708   2028110.8708   2028110.8708   2028134.0671
    440.00   1986747.4973   1986724.8096   1986724.8096   1986724.8096   1986747.4973   1986724.8096   1986724.8096   1986724.8096   1986747.4973
    450.00   1946908.8327   1946886.6321   1946886.6321   1946886.6321   1946908.8327   1946886.6321   1946886.6321   1946886.6321   1946908.8327
    460.00   1908540.4664   1908518.7328   1908518.7328   1908518.7328   1908540.4664   1908518.7328   1908518.7328   1908518.7328   1908540.4664
    470.00   1871569.1292   1871547.8437   1871547.8437   1871547.8437   1871569.1292   1871547.8437   1871547.8437   1871547.8437   1871569.1292
    480.00   1835925.6940   1835904.8387   1835904.8387   1835904.8387   1835925.6940   1835904.8387   1835904.8387   1835904.8387   1835925.6940
    490.00   1801544.9716   1801524.5297   1801524.5297   1801524.5297   1801544.9716   1801524.5297   1801524.5297   1801524.5297   1801544.9716
    500.00   1768365.5033   1768345.4590   1768345.4590   1768345.4590   1768365.5033   1768345.4590   1768345.4590   1768345.4590   1768365.5033
    510.00   1736329.3550   1736309.6933   1736309.6933   1736309.6933   1736329.3551   1736309.6933   1736309.6933   1736309.6933   1736329.3551
    520.00   1705381.9154   1705362.6222   1705362.6222   1705362.6222   1705381.9154   1705362.6222   1705362.6222   1705362.6222   1705381.9154
    530.00   1675471.7004   1675452.7622   1675452.7622   1675452.7622   1675471.7004   1675452.7622   1675452.7622   1675452.7622   1675471.7004
    540.00   1646550.1656   1646531.5699   1646531.5699   1646531.5699   1646550.1656   1646531.5699   1646531.5699   1646531.5699   1646550.1656
    550.00   1618571.5275   1618553.2621   1618553.2621   1618553.2621   1618571.5275   1618553.2621   1618553.2621   1618553.2621   1618571.5275
    560.00   1591492.5928   1591474.6464   1591474.6464   1591474.6464   1591492.5928   1591474.6464   1591474.6464   1591474.6464   1591492.5928
    570.00   1565272.5982   1565254.9600   1565254.9600   1565254.9600   1565272.5982   1565254.9600   1565254.9600   1565254.9600   1565272.5982
    580.00   1539873.0587   1539855.7184   1539855.7184   1539855.7184   1539873.0587   1539855.7184   1539855.7184   1539855.7184   1539873.0587
    590.00   1515257.6251   1515240.5728   1515240.5728   1515240.5728   1515257.6251   1515240.5728   1515240.5728   1515240.5728   1515257.6251
    600.00   1491391.9500   1491375.1764   1491375.1764   1491375.1764   1491391.9500   1491375.1764   1491375.1764   1491375.1764   1491391.9500
    610.00   1468243.5631   1468227.0594   1468227.0594   1468227.0594   1468243.5631   1468227.0594   1468227.0594   1468227.0594   1468243.5631
    620.00   1445781.7534   1445765.5111   1445765.5111   1445765.5111   1445781.7534   1445765.5111   1445765.5111   1445765.5111   1445781.7534
    630.00   1423977.4599   1423961.4709   1423961.4709   1423961.4709   1423977.4599   1423961.4709   1423961.4709   1423961.4709   1423977.4599
    640.00   1402803.1689   1402787.4255   1402787.4255   1402787.4255   1402803.1689   1402787.4255   1402787.4255   1402787.4255   1402803.1689
    650.00   1382232.8188   1382217.3136   1382217.3136   1382217.3136   1382232.8188   1382217.3136   1382217.3136   1382217.3136   1382232.8188
    660.00   1362241.7103   1362226.4363   1362226.4363   1362226.4363   1362241.7103   1362226.4363   1362226.4363   1362226.4363   1362241.7103
    670.00   1342806.4236   1342791.3741   1342791.3741   1342791.3741   1342806.4236   1342791.3741   1342791.3741   1342791.3741   1342806.4236
    680.00   1323904.7402   1323889.9086   1323889.9086   1323889.9086   1323904.7402   1323889.9086   1323889.9086   1323889.9086   1323904.7402
    690.00   1305515.5707   1305500.9510   1305500.9510   1305500.9510   1305515.5707   1305500.9510   1305500.9510   1305500.9510   1305515.5707
    700.00   1287618.8869   1287604.4731   1287604.4731   1287604.4731   1287618.8869   1287604.4731   1287604.4731   1287604.4731   1287618.8869
    710.00   1270195.6588   1270181.4452   1270181.4452   1270181.4452   1270195.6588   1270181.4452   1270181.4452   1270181.4452   1270195.6588
    720.00   1253227.7953   1253213.7765   1253213.7765   1253213.7765   1253227.7953   1253213.7765   1253213.7765   1253213.7765   1253227.7953
    730.00   1236698.0896   1236684.2603   1236684.2603   1236684.2603   1236698.0896   1236684.2603   1236684.2603   1236684.2603   1236698.0896
    740.00   1220590.1674   1220576.5226   1220576.5226   1220576.5226   1220590.1674   1220576.5226   1220576.5226   1220576.5226   1220590.1674
    750.00   1204888.4387   1204874.9736   1204874.9736   1204874.9736   1204888.4387   1204874.9736   1204874.9736   1204874.9736   1204888.4387
    760.00   1189578.0535   1189564.7634   1189564.7634   1189564.7634   1189578.0535   1189564.7634   1189564.7634   1189564.7634   1189578.0535
    770.00   1174644.8591   1174631.7397   1174631.7397   1174631.7397   1174644.8591   1174631.7397   1174631.7397   1174631.7397   1174644.8591
    780.00   1160075.3614   1160062.4082   1160062.4082   1160062.4082   1160075.3615   1160062.4082   1160062.4082   1160062.4082   1160075.3615
    790.00   1145856.6878   1145843.8967   1145843.8967   1145843.8967   1145856.6878   1145843.8967   1145843.8967   1145843.8967   1145856.6878
    800.00   1131976.5527   1131963.9197   1131963.9197   1131963.9197   1131976.5527   1131963.9197   1131963.9197   1131963.9197   1131976.5527
    810.00   1118423.2255   1118410.7469   1118410.7469   1118410.7469   1118423.2255   1118410.7469   1118410.7469   1118410.7469   1118423.2255
    820.00   1105185.5006   1105173.1726   1105173.1726   1105173.1726   1105185.5006   1105173.1726   1105173.1726   1105173.1726   1105185.5006
    830.00   1092252.6685   1092240.4876   1092240.4876   1092240.4876   1092252.6685   1092240.4876   1092240.4876   1092240.4876   1092252.6685
    840.00   1079614.4898   1079602.4524   1079602.4524   1079602.4524   1079614.4898   1079602.4524   1079602.4524   1079602.4524   1079614.4898
    850.00   1067261.1698   1067249.2727   1067249.2727   1067249.2727   1067261.1698   1067249.2727   1067249.2727   1067249.2727   1067261.1698
    860.00   1055183.3356   1055171.5755   1055171.5755   1055171.5755   1055183.3356   1055171.5755   1055171.5755   1055171.5755   1055183.3356
    870.00   1043372.0139   1043360.3877   1043360.3877   1043360.3877   1043372.0139   1043360.3877   1043360.3877   1043360.3877   1043372.0139
    880.00   1031818.6102   1031807.1150   1031807.1150   1031807.1150   1031818.6102   1031807.1150   1031807.1150   1031807.1150   1031818.6102
    890.00   1020514.8897   1020503.5225   1020503.5225   1020503.5225   1020514.8897   1020503.5225   1020503.5225   1020503.5225   1020514.8897
    900.00   1009452.9587   1009441.7167   1009441.7167   1009441.7167   1009452.9587   1009441.7167   1009441.7167   1009441.7167   1009452.9587
    910.00    998625.2479    998614.1285    998614.1285    998614.1285    998625.2480    998614.1285    998614.1285    998614.1285    998625.2480
    920.00    988024.4958    988013.4962    988013.4962    988013.4962    988024.4958    988013.4962    988013.4962    988013.4962    988024.4958
    930.00    977643.7335    977632.8512    977632.8512    977632.8512    977643.7335    977632.8512    977632.8512    977632.8512    977643.7335
    940.00    967476.2706    967465.5031    967465.5031    967465.5031    967476.2706    967465.5031    967465.5031    967465.5031    967476.2706
    950.00    957515.6814    957505.0264    957505.0264    957505.0264    957515.6814    957505.0264    957505.0264    957505.0264    957515.6814
    960.00    947755.7924    947745.2475    947745.2475    947745.2475    947755.7924    947745.2475    947745.2475    947745.2475    947755.7924
    970.00    938190.6699    938180.2330    938180.2330    938180.2330    938190.6699    938180.2330    938180.2330    938180.2330    938190.6699
    980.00    928814.6090    928804.2778    928804.2778    928804.2778    928814.6090    928804.2778    928804.2778    928804.2778    928814.6090
    990.00    919622.1226    919611.8951    919611.8951    919611.8951    919622.1226    919611.8951    919611.8951    919611.8951    919622.1226
   1000.00    910607.9313    910597.8053    910597.8053    910597.8053    910607.9313    910597.8053    910597.8053    910597.8053    910607.9313
