# Temperature [K], Thermal Conductivity (xx, xy, xz, yx, yy, yz, zx, zy, zz) [W/mK]
      0.00         0.0000         0.0000         0.0000         0.0000         0.0000         0.0000         0.0000         0.0000         0.0000
     10.00        56.2755        48.5797        48.5797        48.5797        56.2755        48.5797        48.5797        48.5797        56.2755
     20.00     34266.5186     34258.7383     34258.7383     34258.7383     34266.5186     34258.7383     34258.7383     34258.7383     34266.5186
     30.00    200044.5788    200039.2844    200039.2844    200039.2844    200044.5788    200039.2844    200039.2844    200039.2844    200044.5788
     40.00    387589.5885    387584.8811    387584.8811    387584.8811    387589.5885    387584.8811    387584.8811    387584.8811    387589.5885
     50.00    509153.7001    509149.3388    509149.3388    509149.3388    509153.7001    509149.3388    509149.3388    509149.3388    509153.7001
     60.00    566759.9533    566755.9043    566755.9043    566755.9043    566759.9533    566755.9043    566755.9043    566755.9043    566759.9533
     70.00    583176.1821    583172.4313    583172.4313    583172.4313    583176.1821    583172.4313    583172.4313    583172.4313    583176.1821
     80.00    576631.1324    576627.6602    576627.6602    576627.6602    576631.1324    576627.6602    576627.6602    576627.6602    576631.1324
     90.00    558372.3471    558369.1294    558369.1294    558369.1294    558372.3471    558369.1294    558369.1294    558369.1294    558372.3471
    100.00    534773.7533    534770.7649    534770.7649    534770.7649    534773.7533    534770.7649    534770.7649    534770.7649    534773.7533
    110.00    509314.3292    509311.5460    509311.5460    509311.5460    509314.3292    509311.5460    509311.5460    509311.5460    509314.3292
    120.00    483839.8785    483837.2784    483837.2784    483837.2784    483839.8785    483837.2784    483837.2784    483837.2784    483839.8785
    130.00    459290.5738    459288.1373    459288.1373    459288.1373    459290.5738    459288.1373    459288.1373    459288.1373    459290.5738
    140.00    436107.7838    436105.4935    436105.4936    436105.4935    436107.7838    436105.4936    436105.4936    436105.4936    436107.7838
    150.00    414460.1420    414457.9830    414457.9830    414457.9830    414460.1420    414457.9830    414457.9830    414457.9830    414460.1420
    160.00    394369.4686    394367.4278    394367.4278    394367.4278    394369.4686    394367.4278    394367.4278    394367.4278    394369.4686
    170.00    375781.1829    375779.2488    375779.2488    375779.2488    375781.1829    375779.2488    375779.2488    375779.2488    375781.1829
    180.00    358603.7293    358601.8920    358601.8920    358601.8920    358603.7293    358601.8920    358601.8920    358601.8920    358603.7293
    190.00    342730.5520    342728.8027    342728.8027    342728.8027    342730.5520    342728.8027    342728.8027    342728.8027    342730.5520
    200.00    328052.1620    328050.4930    328050.4930    328050.4930    328052.1620    328050.4930    328050.4930    328050.4930    328052.1620
    210.00    314462.5502    314460.9548    314460.9548    314460.9548    314462.5502    314460.9548    314460.9548    314460.9548    314462.5502
    220.00    301862.3709    301860.8431    301860.8431    301860.8431    301862.3709    301860.8431    301860.8431    301860.8431    301862.3709
    230.00    290160.2917    290158.8263    290158.8263    290158.8263    290160.2917    290158.8263    290158.8263    290158.8263    290160.2917
    240.00    279273.3180    279271.9101    279271.9101    279271.9101    279273.3180    279271.9101    279271.9101    279271.9101    279273.3180
    250.00    269126.5628    269125.2083    269125.2083    269125.2083    269126.5628    269125.2083    269125.2083    269125.2083    269126.5628
    260.00    259652.7355    259651.4305    259651.4305    259651.4305    259652.7355    259651.4305    259651.4305    259651.4305    259652.7355
    270.00    250791.5073    250790.2485    250790.2485    250790.2485    250791.5073    250790.2485    250790.2485    250790.2485    250791.5073
    280.00    242488.8426    242487.6268    242487.6268    242487.6268    242488.8426    242487.6268    242487.6268    242487.6268    242488.8426
    290.00    234696.3454    234695.1699    234695.1699    234695.1699    234696.3454    234695.1699    234695.1699    234695.1699    234696.3454
    300.00    227370.6475    227369.5097    227369.5097    227369.5097    227370.6475    227369.5097    227369.5097    227369.5097    227370.6475
    310.00    220472.8470    220471.7447    220471.7447    220471.7447    220472.8470    220471.7447    220471.7447    220471.7447    220472.8470
    320.00    213968.0044    213966.9353    213966.9353    213966.9353    213968.0044    213966.9353    213966.9353    213966.9353    213968.0044
    330.00    207824.6914    207823.6538    207823.6538    207823.6538    207824.6914    207823.6538    207823.6538    207823.6538    207824.6914
    340.00    202014.5927    202013.5847    202013.5847    202013.5847    202014.5927    202013.5847    202013.5847    202013.5847    202014.5927
    350.00    196512.1532    196511.1733    196511.1733    196511.1733    196512.1532    196511.1733    196511.1733    196511.1733    196512.1532
    360.00    191294.2686    191293.3151    191293.3151    191293.3151    191294.2686    191293.3151    191293.3151    191293.3151    191294.2686
    370.00    186340.0121    186339.0838    186339.0838    186339.0838    186340.0121    186339.0838    186339.0838    186339.0838    186340.0121
    380.00    181630.3957    181629.4913    181629.4913    181629.4913    181630.3957    181629.4913    181629.4913    181629.4913    181630.3957
    390.00    177148.1592    177147.2775    177147.2775    177147.2775    177148.1592    177147.2775    177147.2775    177147.2775    177148.1592
    400.00    172877.5851    172876.7249    172876.7249    172876.7249    172877.5851    172876.7249    172876.7249    172876.7249    172877.5851
    410.00    168804.3357    168803.4961    168803.4961    168803.4961    168804.3357    168803.4961    168803.4961    168803.4961    168804.3357
    420.00    164915.3094    164914.4895    164914.4895    164914.4895    164915.3095    164914.4895    164914.4895    164914.4895    164915.3095
    430.00    161198.5144    161197.7132    161197.7132    161197.7132    161198.5144    161197.7132    161197.7132    161197.7132    161198.5144
    440.00    157642.9560    157642.1726    157642.1726    157642.1726    157642.9560    157642.1726    157642.1726    157642.1726    157642.9560
    450.00    154238.5378    154237.7716    154237.7716    154237.7716    154238.5379    154237.7716    154237.7716    154237.7716    154238.5379
    460.00    150975.9742    150975.2244    150975.2244    150975.2244    150975.9742    150975.2244    150975.2244    150975.2244    150975.9742
    470.00    147846.7117    147845.9776    147845.9776    147845.9776    147846.7117    147845.9776    147845.9776    147845.9776    147846.7117
    480.00    144842.8599    144842.1409    144842.1409    144842.1409    144842.8599    144842.1409    144842.1409    144842.1409    144842.8599
    490.00    141957.1296    141956.4250    141956.4250    141956.4250    141957.1296    141956.4250    141956.4250    141956.4250    141957.1296
    500.00    139182.7773    139182.0866    139182.0866    139182.0866    139182.7773    139182.0866    139182.0866    139182.0866    139182.7773
    510.00    136513.5565    136512.8791    136512.8791    136512.8791    136513.5565    136512.8791    136512.8791    136512.8791    136513.5565
    520.00    133943.6727    133943.0083    133943.0083    133943.0083    133943.6727    133943.0083    133943.0083    133943.0083    133943.6727
    530.00    131467.7446    131467.0925    131467.0925    131467.0925    131467.7446    131467.0925    131467.0925    131467.0925    131467.7446
    540.00    129080.7677    129080.1276    129080.1276    129080.1276    129080.7677    129080.1276    129080.1276    129080.1276    129080.7677
    550.00    126778.0829    126777.4543    126777.4543    126777.4543    126778.0829    126777.4543    126777.4543    126777.4543    126778.0829
    560.00    124555.3471    124554.7296    124554.7296    124554.7296    124555.3471    124554.7296    124554.7296    124554.7296    124555.3471
    570.00    122408.5076    122407.9008    122407.9008    122407.9008    122408.5076    122407.9008    122407.9008    122407.9008    122408.5076
    580.00    120333.7782    120333.1817    120333.1817    120333.1817    120333.7782    120333.1817    120333.1817    120333.1817    120333.7782
    590.00    118327.6180    118327.0315    118327.0315    118327.0315    118327.6180    118327.0315    118327.0315    118327.0315    118327.6180
    600.00    116386.7120    116386.1353    116386.1353    116386.1353    116386.7120    116386.1353    116386.1353    116386.1353    116386.7120
    610.00    114507.9538    114507.3865    114507.3865    114507.3865    114507.9538    114507.3865    114507.3865    114507.3865    114507.9538
    620.00    112688.4292    112687.8709    112687.8709    112687.8709    112688.4292    112687.8709    112687.8709    112687.8709    112688.4292
    630.00    110925.4019    110924.8523    110924.8523    110924.8523    110925.4019    110924.8524    110924.8523    110924.8524    110925.4019
    640.00    109216.3002    109215.7592    109215.7592    109215.7592    109216.3002    109215.7592    109215.7592    109215.7592    109216.3002
    650.00    107558.7052    107558.1725    107558.1725    107558.1725    107558.7052    107558.1725    107558.1725    107558.1725    107558.7052
    660.00    105950.3392    105949.8144    105949.8144    105949.8144    105950.3392    105949.8144    105949.8144    105949.8144    105950.3392
    670.00    104389.0559    104388.5390    104388.5390    104388.5390    104389.0559    104388.5390    104388.5390    104388.5390    104389.0559
    680.00    102872.8313    102872.3219    102872.3219    102872.3219    102872.8313    102872.3219    102872.3219    102872.3219    102872.8313
    690.00    101399.7549    101399.2528    101399.2528    101399.2528    101399.7549    101399.2528    101399.2528    101399.2528    101399.7549
    700.00     99968.0218     99967.5269     99967.5269     99967.5269     99968.0218     99967.5269     99967.5269     99967.5269     99968.0218
    710.00     98575.9262     98575.4381     98575.4381     98575.4381     98575.9262     98575.4381     98575.4381     98575.4381     98575.9262
    720.00     97221.8538     97221.3725     97221.3725     97221.3725     97221.8538     97221.3725     97221.3725     97221.3725     97221.8538
    730.00     95904.2765     95903.8018     95903.8018     95903.8018     95904.2765     95903.8018     95903.8018     95903.8018     95904.2765
    740.00     94621.7467     94621.2783     94621.2783     94621.2783     94621.7467     94621.2783     94621.2783     94621.2783     94621.7467
    750.00     93372.8916     93372.4294     93372.4294     93372.4294     93372.8916     93372.4294     93372.4294     93372.4294     93372.8916
    760.00     92156.4090     92155.9529     92155.9529     92155.9529     92156.4090     92155.9529     92155.9529     92155.9529     92156.4090
    770.00     90971.0625     90970.6123     90970.6123     90970.6123     90971.0625     90970.6123     90970.6123     90970.6123     90971.0625
    780.00     89815.6778     89815.2333     89815.2333     89815.2333     89815.6778     89815.2333     89815.2333     89815.2333     89815.6778
    790.00     88689.1383     88688.6994     88688.6994     88688.6994     88689.1383     88688.6994     88688.6994     88688.6994     88689.1383
    800.00     87590.3822     87589.9487     87589.9487     87589.9487     87590.3822     87589.9487     87589.9487     87589.9487     87590.3822
    810.00     86518.3987     86517.9706     86517.9706     86517.9706     86518.3987     86517.9706     86517.9706     86517.9706     86518.3987
    820.00     85472.2254     85471.8025     85471.8025     85471.8025     85472.2254     85471.8025     85471.8025     85471.8025     85472.2254
    830.00     84450.9453     84450.5274     84450.5274     84450.5274     84450.9453     84450.5274     84450.5274     84450.5274     84450.9453
    840.00     83453.6839     83453.2710     83453.2710     83453.2710     83453.6839     83453.2710     83453.2710     83453.2710     83453.6839
    850.00     82479.6074     82479.1993     82479.1993     82479.1993     82479.6074     82479.1993     82479.1993     82479.1993     82479.6074
    860.00     81527.9196     81527.5162     81527.5162     81527.5162     81527.9196     81527.5162     81527.5162     81527.5162     81527.9196
    870.00     80597.8604     80597.4617     80597.4617     80597.4617     80597.8604     80597.4617     80597.4617     80597.4617     80597.8604
    880.00     79688.7036     79688.3094     79688.3094     79688.3094     79688.7036     79688.3094     79688.3094     79688.3094     79688.7036
    890.00     78799.7550     78799.3652     78799.3652     78799.3652     78799.7550     78799.3652     78799.3652     78799.3652     78799.7550
    900.00     77930.3506     77929.9651     77929.9651     77929.9651     77930.3506     77929.9651     77929.9651     77929.9651     77930.3506
    910.00     77079.8552     77079.4739     77079.4739     77079.4739     77079.8552     77079.4739     77079.4739     77079.4739     77079.8552
    920.00     76247.6606     76247.2835     76247.2835     76247.2835     76247.6606     76247.2835     76247.2835     76247.2835     76247.6606
    930.00     75433.1845     75432.8114     75432.8114     75432.8114     75433.1845     75432.8114     75432.8114     75432.8114     75433.1845
    940.00     74635.8688     74635.4996     74635.4996     74635.4996     74635.8688     74635.4996     74635.4996     74635.4996     74635.8688
    950.00     73855.1785     73854.8133     73854.8133     73854.8133     73855.1785     73854.8133     73854.8133     73854.8133     73855.1785
    960.00     73090.6008     73090.2393     73090.2393     73090.2393     73090.6008     73090.2393     73090.2393     73090.2393     73090.6008
    970.00     72341.6433     72341.2855     72341.2855     72341.2855     72341.6433     72341.2855     72341.2855     72341.2855     72341.6433
    980.00     71607.8337     71607.4796     71607.4796     71607.4796     71607.8337     71607.4796     71607.4796     71607.4796     71607.8337
    990.00     70888.7184     70888.3679     70888.3679     70888.3679     70888.7184     70888.3679     70888.3679     70888.3679     70888.7184
   1000.00     70183.8618     70183.5147     70183.5147     70183.5147     70183.8618     70183.5147     70183.5147     70183.5147     70183.8618
