# k-axis, Phonon energy [meV], band-1, band-2, band-3, band-4, band-5, band-6, band-7
     1     0.000000    0.000000     0.000000     0.000000    36.785325    36.785337    87.599334 
     2     0.015843    0.923013     1.089419     2.350614    36.803227    36.847699    87.582076 
     3     0.031685    1.846237     2.177954     4.698070    36.856750    37.034029    87.530326 
     4     0.047528    2.769884     3.264722     7.039208    36.945494    37.341983    87.444160 
     5     0.063371    3.694161     4.348832     9.370870    37.068780    37.767804    87.323714 
     6     0.079214    4.619272     5.429390    11.689896    37.225664    38.306497    87.169148 
     7     0.095056    5.545408     6.505497    13.993127    37.414957    38.952024    86.980735 
     8     0.110899    6.472760     7.576243    16.277409    37.635294    39.697603    86.758724 
     9     0.126742    7.401502     8.640712    18.539597    37.885052    40.535856    86.503474 
    10     0.142584    8.331799     9.697976    20.776544    38.162482    41.459135    86.215382 
    11     0.158427    9.263803    10.747098    22.985148    38.465688    42.459654    85.894869 
    12     0.174270   10.197645    11.787131    25.162349    38.792648    43.529651    85.542443 
    13     0.190113   11.133442    12.817114    27.305082    39.141242    44.661539    85.158639 
    14     0.205955   12.071285    13.836081    29.410424    39.509289    45.847940    84.744074 
    15     0.221798   13.011242    14.843047    31.475509    39.894594    47.081789    84.299383 
    16     0.237641   13.953366    15.837044    33.497598    40.294889    48.356304    83.825283 
    17     0.253484   14.897672    16.817056    35.474100    40.707965    49.664975    83.322544 
    18     0.269326   15.844123    17.782092    37.402621    41.131580    51.001591    82.791947 
    19     0.285169   16.792669    18.731146    39.280968    41.563551    52.360151    82.234409 
    20     0.301012   17.743224    19.663216    41.107218    42.001746    53.734903    81.650823 
    21     0.316854   18.695638    20.577283    42.444057    42.879673    55.120181    81.042205 
    22     0.332697   19.649702    21.472332    42.888488    44.596920    56.510530    80.409597 
    23     0.348540   20.605178    22.347358    43.333093    46.257831    57.900557    79.754127 
    24     0.364383   21.561721    23.201357    43.775974    47.861512    59.285017    79.076998 
    25     0.380225   22.518959    24.033337    44.215384    49.407295    60.658752    78.379474 
    26     0.396068   23.476406    24.842294    44.649599    50.894745    62.016742    77.662907 
    27     0.411911   24.433482    25.627261    45.077008    52.323552    63.354152    76.928772 
    28     0.427753   25.389480    26.387246    45.496098    53.693506    64.666269    76.178606 
    29     0.443596   26.343618    27.121319    45.905442    55.004520    65.948632    75.414108 
    30     0.459439   27.294904    27.828526    46.303666    56.256495    67.196974    74.637076 
    31     0.475282   28.242198    28.507949    46.689541    57.449381    68.407304    73.849480 
    32     0.491124   29.158695    29.184185    47.061891    58.583104    69.575828    73.053492 
    33     0.506967   29.779897    30.119267    47.419622    59.657564    70.699062    72.251477 
    34     0.522810   30.370674    31.045596    47.761720    60.672638    71.446054    71.773770 
    35     0.538653   30.930245    31.960990    48.087280    61.628140    70.640184    72.796952 
    36     0.554495   31.457780    32.862845    48.395444    62.523883    69.837141    73.765868 
    37     0.570338   31.952560    33.748137    48.685446    63.359619    69.040681    74.678039 
    38     0.586181   32.413827    34.613245    48.956565    64.135102    68.255057    75.531170 
    39     0.602023   32.840926    35.453916    49.208170    64.850033    67.485141    76.323216 
    40     0.617866   33.233211    36.265117    49.439703    65.504151    66.736525    77.052330 
    41     0.633709   33.590087    37.040934    49.650667    66.015668    66.097135    77.716851 
    42     0.649552   33.910997    37.774487    49.840580    65.329959    66.628712    78.315327 
    43     0.665394   34.195445    38.457790    50.009081    64.687805    67.098608    78.846470 
    44     0.681237   34.442983    39.081806    50.155824    64.098627    67.506564    79.309163 
    45     0.697080   34.653216    39.636567    50.280511    63.572778    67.852332    79.702427 
    46     0.712922   34.825796    40.111411    50.382918    63.121194    68.135726    80.025482 
    47     0.728765   34.960476    40.495625    50.462848    62.754833    68.356559    80.277682 
    48     0.744608   35.057006    40.779167    50.520151    62.483912    68.514683    80.458520 
    49     0.760451   35.115240    40.953780    50.554729    62.316861    68.610024    80.567634 
    50     0.776293   35.135077    41.013923    50.566508    62.259285    68.642494    80.604816 
    51     0.776293   35.135077    41.013923    50.566508    62.259285    68.642494    80.604816 
    52     0.785431   35.154182    41.018275    50.579910    62.254487    68.639097    80.599646 
    53     0.794569   35.211399    41.031392    50.620079    62.240055    68.628906    80.584136 
    54     0.803706   35.306442    41.053249    50.686855    62.215991    68.611933    80.558311 
    55     0.812844   35.438778    41.083848    50.779976    62.182318    68.588178    80.522183 
    56     0.821982   35.607738    41.123199    50.899084    62.139049    68.557679    80.475790 
    57     0.831119   35.812454    41.171316    51.043694    62.086196    68.520448    80.419181 
    58     0.840257   36.051884    41.228185    51.213249    62.023772    68.476522    80.352393 
    59     0.849394   36.324826    41.293833    51.407117    61.951802    68.425938    80.275513 
    60     0.858532   36.629978    41.368258    51.624528    61.870310    68.368721    80.188590 
    61     0.867670   36.965877    41.451461    51.864677    61.779333    68.304946    80.091712 
    62     0.876807   37.331010    41.543454    52.126684    61.678897    68.234662    79.984990 
    63     0.885945   37.723729    41.644250    52.409545    61.569038    68.157943    79.868511 
    64     0.895083   38.142348    41.753860    52.712267    61.449782    68.074839    79.742423 
    65     0.904220   38.585130    41.872274    53.033734    61.321190    67.985462    79.606827 
    66     0.913358   39.050278    41.999514    53.372832    61.183299    67.889898    79.461894 
    67     0.922496   39.535982    42.135582    53.728345    61.036160    67.788259    79.307774 
    68     0.931633   40.040420    42.280478    54.099045    60.879821    67.680670    79.144654 
    69     0.940771   40.561756    42.434201    54.483680    60.714333    67.567253    78.972731 
    70     0.949909   41.098155    42.596763    54.880937    60.539756    67.448182    78.792216 
    71     0.959046   41.647783    42.768141    55.289489    60.356154    67.323620    78.603357 
    72     0.968184   42.208817    42.948358    55.707971    60.163589    67.193775    78.406415 
    73     0.977321   42.779460    43.137378    56.134995    59.962121    67.058860    78.201674 
    74     0.986459   43.335213    43.357914    56.569148    59.751826    66.919135    77.989445 
    75     0.995597   43.541838    43.942393    57.008992    59.532791    66.774872    77.770112 
    76     1.004734   43.757228    44.531099    57.453051    59.305064    66.626430    77.544047 
    77     1.013872   43.981372    45.122285    57.899863    59.068734    66.474146    77.311696 
    78     1.023010   44.214244    45.714141    58.347852    58.823886    66.318464    77.073556 
    79     1.032147   44.455806    46.304906    58.570594    58.795494    66.159857    76.830183 
    80     1.041285   44.706023    46.892732    58.308959    59.241140    65.998893    76.582186 
    81     1.050423   44.964843    47.475798    58.039055    59.683129    65.836207    76.330271 
    82     1.059560   45.232243    48.052193    57.760980    60.119712    65.672541    76.075256 
    83     1.068698   45.508148    48.619947    57.474834    60.549055    65.508738    75.818035 
    84     1.077836   45.792521    49.177027    57.180704    60.969235    65.345791    75.559661 
    85     1.086973   46.085275    49.721262    56.878689    61.378171    65.184828    75.301336 
    86     1.096111   46.386361    50.250383    56.568900    61.773680    65.027163    75.044425 
    87     1.105248   46.695691    50.761937    56.251437    62.153381    64.874296    74.790501 
    88     1.114386   47.013179    51.253332    55.926386    62.514671    64.727937    74.541376 
    89     1.123524   47.338750    51.721753    55.593884    62.854761    64.590071    74.299094 
    90     1.132661   47.672294    52.164225    55.254030    63.170612    64.462868    74.065962 
    91     1.141799   48.013710    52.577562    54.906936    63.458890    64.348819    73.844546 
    92     1.150937   48.362899    52.958441    54.552725    63.715950    64.250713    73.637623 
    93     1.160074   48.719726    53.303465    54.191497    63.937143    64.172346    73.448108 
    94     1.169212   49.084079    53.609312    53.823388    64.086936    64.148430    73.278925 
    95     1.178350   49.455820    53.448522    53.872831    64.068624    64.274803    73.132789 
    96     1.187487   49.834790    53.067035    54.091333    64.059586    64.373404    73.012020 
    97     1.196625   50.220827    52.679102    54.262723    64.076435    64.427000    72.918205 
    98     1.205763   50.613632    52.284957    54.385761    64.120596    64.433720    72.851987 
    99     1.214900   51.012501    51.885295    54.460186    64.191872    64.393526    72.812908 
   100     1.224038   51.394880    51.502643    54.486693    64.283370    64.313249    72.799407 
   101     1.224038   51.394880    51.502643    54.486693    64.283370    64.313249    72.799407 
   102     1.242313   50.560532    52.337996    54.386083    63.965770    64.586265    72.845726 
   103     1.260588   49.703173    53.197872    54.124052    63.501068    64.928239    72.952498 
   104     1.278864   48.823832    53.726113    54.080770    62.918151    65.310631    73.088466 
   105     1.297139   47.923601    53.216419    54.985130    62.243192    65.706573    73.225452 
   106     1.315414   47.003521    52.615203    55.909314    61.497489    66.093515    73.340567 
   107     1.333689   46.064682    51.938334    56.851587    60.697533    66.453627    73.416084 
   108     1.351965   45.108139    51.197851    57.810188    59.855883    66.773223    73.438561 
   109     1.370240   44.135008    50.402804    58.783245    58.982183    67.041912    73.397772 
   110     1.388515   43.146329    49.560026    58.083998    59.768898    67.251860    73.285954 
   111     1.406790   42.143195    48.674734    57.167364    60.765177    67.397189    73.097133 
   112     1.425066   41.126646    47.750984    56.237241    61.770121    67.473462    72.826732 
   113     1.443341   40.097760    46.791949    55.297795    62.781699    67.477404    72.471257 
   114     1.461616   39.057543    45.800220    54.352609    63.797901    67.406699    72.028053 
   115     1.479891   38.007036    44.777919    53.404794    64.816657    67.259745    71.495187 
   116     1.498167   36.947205    43.726841    52.457091    65.835884    67.035577    70.871369 
   117     1.516442   35.879056    42.648537    51.511954    66.733810    66.853525    70.155844 
   118     1.534717   34.803517    41.544384    50.571504    66.354518    67.867483    69.348362 
   119     1.552992   33.721519    40.415620    49.637600    65.898259    68.449160    68.875700 
   120     1.571268   32.633916    39.263387    48.711866    65.365951    67.458956    69.876083 
   121     1.589543   31.541591    38.088751    47.795555    64.758969    66.378966    70.866608 
   122     1.607818   30.445335    36.892766    46.889620    64.079038    65.210889    71.845232 
   123     1.626093   29.345930    35.676435    45.994596    63.328240    63.957017    72.809945 
   124     1.644369   28.244107    34.440751    45.110507    62.509067    62.620290    73.758764 
   125     1.662644   27.140549    33.186731    44.236771    61.204413    61.624358    74.689767 
   126     1.680919   26.035899    31.915403    43.371923    59.714050    60.677337    75.601020 
   127     1.699194   24.930754    30.627833    42.513436    58.155075    59.671636    76.490664 
   128     1.717470   23.825671    29.325113    41.657255    56.534992    58.611285    77.356899 
   129     1.735745   22.721133    28.008409    40.797218    54.863481    57.500721    78.197930 
   130     1.754020   21.617574    26.678983    39.924275    53.153226    56.344868    79.012057 
   131     1.772295   20.515417    25.338127    39.025284    51.421040    55.149106    79.797619 
   132     1.790571   19.414970    23.987278    38.081672    49.689275    53.919348    80.553017 
   133     1.808846   18.316557    22.627974    37.068098    47.987091    52.662067    81.276726 
   134     1.827121   17.220388    21.261839    35.952142    46.350816    51.384304    81.967257 
   135     1.845397   16.126661    19.890694    34.696882    44.821287    50.093821    82.623210 
   136     1.863672   15.035513    18.516450    33.268186    43.436691    48.799061    83.243272 
   137     1.881947   13.947019    17.141152    31.644742    42.222393    47.509248    83.826188 
   138     1.900222   12.861226    15.766983    29.824852    41.184222    46.234473    84.370758 
   139     1.918498   11.778115    14.396223    27.824497    40.310448    44.985684    84.875915 
   140     1.936773   10.697643    13.031166    25.669142    39.579896    43.774784    85.340604 
   141     1.955048    9.619710    11.674103    23.385827    38.969939    42.614579    85.763909 
   142     1.973323    8.544181    10.327151    20.998815    38.460815    41.518782    86.144986 
   143     1.991599    7.470886     8.992160    18.528352    38.036940    40.501824    86.483042 
   144     2.009874    6.399619     7.670522    15.990940    37.686610    39.578631    86.777408 
   145     2.028149    5.330149     6.362985    13.400155    37.401220    38.764306    87.027501 
   146     2.046424    4.262217     5.069464    10.767389    37.174572    38.073489    87.232812 
   147     2.064700    3.195540     3.788921     8.102498    37.002215    37.519807    87.392919 
   148     2.082975    2.129821     2.519291     5.414296    36.881087    37.115012    87.507526 
   149     2.101250    1.064748     1.257568     2.710897    36.809178    36.868255    87.576373 
   150     2.119525    0.000000     0.000000     0.000000    36.785325    36.785337    87.599334 
   151     2.119525    0.000000     0.000000     0.000000    36.785325    36.785337    87.599334 
   152     2.127960    0.676337     0.676338     1.061305    36.782089    36.782114    87.583278 
   153     2.136394    1.352376     1.352376     2.122948    36.772418    36.772431    87.535112 
   154     2.144829    2.027817     2.027818     3.185269    36.756264    36.756289    87.454872 
   155     2.153263    2.702362     2.702364     4.248600    36.733650    36.733662    87.342633 
   156     2.161698    3.375715     3.375718     5.313268    36.704515    36.704539    87.198494 
   157     2.170132    4.047580     4.047582     6.379593    36.668870    36.668883    87.022579 
   158     2.178567    4.717663     4.717665     7.447882    36.626655    36.626680    86.815024 
   159     2.187001    5.385671     5.385674     8.518431    36.577857    36.577869    86.576015 
   160     2.195436    6.051316     6.051319     9.591524    36.522413    36.522425    86.305751 
   161     2.203870    6.714309     6.714312    10.667426    36.460274    36.460286    86.004467 
   162     2.212305    7.374366     7.374370    11.746390    36.391403    36.391415    85.672412 
   163     2.220740    8.031207     8.031211    12.828645    36.315726    36.315738    85.309869 
   164     2.229174    8.684554     8.684557    13.914387    36.233192    36.233205    84.917138 
   165     2.237609    9.334131     9.334136    15.003824    36.143728    36.143741    84.494540 
   166     2.246043    9.979671     9.979675    16.097117    36.047259    36.047272    84.042459 
   167     2.254478   10.620907    10.620912    17.194389    35.943711    35.943736    83.561243 
   168     2.262912   11.257579    11.257584    18.295766    35.833022    35.833034    83.051313 
   169     2.271347   11.889430    11.889437    19.401333    35.715092    35.715105    82.513079 
   170     2.279781   12.516215    12.516215    20.511152    35.589848    35.589860    81.946999 
   171     2.288216   13.137677    13.137689    21.625261    35.457189    35.457214    81.353531 
   172     2.296650   13.753585    13.753597    22.743647    35.317042    35.317067    80.733172 
   173     2.305085   14.363715    14.363715    23.866286    35.169320    35.169332    80.086431 
   174     2.313519   14.967820    14.967820    24.993128    35.013911    35.013923    79.413827 
   175     2.321954   15.565689    15.565689    26.124086    34.850728    34.850753    78.715919 
   176     2.330388   16.157098    16.157111    27.259036    34.679698    34.679710    77.993264 
   177     2.338823   16.741862    16.741862    28.397842    34.500708    34.500720    77.246458 
   178     2.347257   17.319758    17.319770    29.540318    34.313672    34.313684    76.476084 
   179     2.355692   17.890599    17.890612    30.686265    34.118503    34.118515    75.682773 
   180     2.364126   18.454212    18.454212    31.835436    33.915089    33.915101    74.867146 
   181     2.372561   19.010399    19.010411    32.987569    33.703368    33.703380    74.029847 
   182     2.380995   19.558998    19.559010    33.483229    33.483241    34.142356    73.171545 
   183     2.389430   20.099848    20.099861    33.254597    33.254610    35.299499    72.292887 
   184     2.397864   20.632789    20.632801    33.017387    33.017399    36.458625    71.394565 
   185     2.406299   21.157671    21.157683    32.771509    32.771522    37.619375    70.477274 
   186     2.414733   21.674370    21.674382    32.516904    32.516916    38.781316    69.541709 
   187     2.423168   22.182737    22.182750    32.253484    32.253496    39.944025    68.588563 
   188     2.431602   22.682662    22.682674    31.981187    31.981199    41.107044    67.618568 
   189     2.440037   23.174032    23.174044    31.699938    31.699950    42.269902    66.632431 
   190     2.448471   23.656723    23.656735    31.409688    31.409701    43.432091    65.630896 
   191     2.456906   24.130661    24.130674    31.110376    31.110388    44.593077    64.614657 
   192     2.465340   24.595735    24.595748    30.801938    30.801951    45.752315    63.584482 
   193     2.473775   25.051882    25.051895    30.484351    30.484364    46.909246    62.541066 
   194     2.482209   25.499016    25.499029    30.157565    30.157589    48.063265    61.485166 
   195     2.490644   25.937075    25.937087    29.821554    29.821566    49.213787    60.417512 
   196     2.499078   26.366021    26.366033    29.476282    29.476295    50.360168    59.338812 
   197     2.507513   26.785780    26.785792    29.121724    29.121749    51.501788    58.249809 
   198     2.515947   27.196315    27.196327    28.757892    28.757905    52.637978    57.151209 
   199     2.524382   27.597613    27.597626    28.384750    28.384762    53.768093    56.043733 
   200     2.532816   27.995973    27.995986    27.995986    27.995998    54.909763    54.909775 
