# Temperature [K], Thermal Conductivity (xx, xy, xz, yx, yy, yz, zx, zy, zz) [W/mK]
      0.00         0.0000         0.0000         0.0000         0.0000         0.0000         0.0000         0.0000         0.0000         0.0000
     10.00    172633.7727         0.0394         0.0395         0.0394    172633.7657         0.0395         0.0395         0.0395    172633.7651
     20.00     44656.3114         0.0093         0.0094         0.0093     44656.3096         0.0094         0.0094         0.0094     44656.3095
     30.00     19994.9124         0.0049         0.0049         0.0049     19994.9116         0.0049         0.0049         0.0049     19994.9116
     40.00     11344.9896         0.0110         0.0110         0.0110     11344.9891         0.0110         0.0110         0.0110     11344.9891
     50.00      7544.4340         0.0236         0.0237         0.0236      7544.4336         0.0236         0.0237         0.0236      7544.4336
     60.00      5526.1206         0.0313         0.0313         0.0313      5526.1203         0.0313         0.0313         0.0313      5526.1203
     70.00      4306.6672         0.0301         0.0301         0.0301      4306.6670         0.0301         0.0301         0.0301      4306.6671
     80.00      3498.6006         0.0239         0.0239         0.0239      3498.6005         0.0239         0.0239         0.0239      3498.6005
     90.00      2921.5037         0.0175         0.0175         0.0175      2921.5036         0.0175         0.0175         0.0175      2921.5036
    100.00      2484.4245         0.0128         0.0128         0.0128      2484.4244         0.0128         0.0128         0.0128      2484.4245
    110.00      2139.6627         0.0098         0.0098         0.0098      2139.6626         0.0098         0.0098         0.0098      2139.6626
    120.00      1860.7434         0.0079         0.0079         0.0079      1860.7433         0.0079         0.0079         0.0079      1860.7433
    130.00      1631.6130         0.0068         0.0068         0.0068      1631.6129         0.0068         0.0068         0.0068      1631.6129
    140.00      1441.5217         0.0060         0.0060         0.0060      1441.5217         0.0060         0.0060         0.0060      1441.5217
    150.00      1282.6671         0.0055         0.0055         0.0055      1282.6671         0.0055         0.0055         0.0055      1282.6671
    160.00      1149.0907         0.0051         0.0051         0.0051      1149.0907         0.0051         0.0051         0.0051      1149.0907
    170.00      1036.1160         0.0049         0.0049         0.0049      1036.1160         0.0049         0.0049         0.0049      1036.1160
    180.00       940.0218         0.0048         0.0048         0.0048       940.0218         0.0048         0.0048         0.0048       940.0218
    190.00       857.8249         0.0048         0.0048         0.0048       857.8249         0.0048         0.0048         0.0048       857.8249
    200.00       787.1225         0.0049         0.0049         0.0049       787.1225         0.0049         0.0049         0.0049       787.1225
    210.00       725.9715         0.0050         0.0050         0.0050       725.9715         0.0050         0.0050         0.0050       725.9715
    220.00       672.7946         0.0052         0.0052         0.0052       672.7946         0.0052         0.0052         0.0052       672.7946
    230.00       626.3066         0.0055         0.0055         0.0055       626.3065         0.0055         0.0055         0.0055       626.3065
    240.00       585.4559         0.0058         0.0058         0.0058       585.4559         0.0058         0.0058         0.0058       585.4559
    250.00       549.3789         0.0061         0.0061         0.0061       549.3789         0.0061         0.0061         0.0061       549.3789
    260.00       517.3629         0.0065         0.0065         0.0065       517.3629         0.0065         0.0065         0.0065       517.3629
    270.00       488.8175         0.0068         0.0068         0.0068       488.8175         0.0068         0.0068         0.0068       488.8175
    280.00       463.2515         0.0072         0.0072         0.0072       463.2515         0.0072         0.0072         0.0072       463.2515
    290.00       440.2546         0.0076         0.0076         0.0076       440.2545         0.0076         0.0076         0.0076       440.2545
    300.00       419.4824         0.0079         0.0079         0.0079       419.4824         0.0079         0.0079         0.0079       419.4824
    310.00       400.6449         0.0083         0.0083         0.0083       400.6449         0.0083         0.0083         0.0083       400.6449
    320.00       383.4969         0.0087         0.0087         0.0087       383.4968         0.0087         0.0087         0.0087       383.4968
    330.00       367.8299         0.0090         0.0090         0.0090       367.8299         0.0090         0.0090         0.0090       367.8299
    340.00       353.4664         0.0093         0.0093         0.0093       353.4663         0.0093         0.0093         0.0093       353.4663
    350.00       340.2544         0.0097         0.0097         0.0097       340.2544         0.0097         0.0097         0.0097       340.2544
    360.00       328.0634         0.0099         0.0099         0.0099       328.0634         0.0099         0.0099         0.0099       328.0634
    370.00       316.7809         0.0102         0.0102         0.0102       316.7809         0.0102         0.0102         0.0102       316.7809
    380.00       306.3096         0.0105         0.0105         0.0105       306.3096         0.0105         0.0105         0.0105       306.3096
    390.00       296.5650         0.0107         0.0107         0.0107       296.5649         0.0107         0.0107         0.0107       296.5649
    400.00       287.4734         0.0110         0.0110         0.0110       287.4734         0.0110         0.0110         0.0110       287.4734
    410.00       278.9707         0.0112         0.0112         0.0112       278.9707         0.0112         0.0112         0.0112       278.9707
    420.00       271.0004         0.0114         0.0114         0.0114       271.0004         0.0114         0.0114         0.0114       271.0004
    430.00       263.5129         0.0115         0.0115         0.0115       263.5129         0.0115         0.0115         0.0115       263.5129
    440.00       256.4645         0.0117         0.0117         0.0117       256.4645         0.0117         0.0117         0.0117       256.4645
    450.00       249.8166         0.0118         0.0118         0.0118       249.8166         0.0118         0.0118         0.0118       249.8166
    460.00       243.5347         0.0120         0.0120         0.0120       243.5347         0.0120         0.0120         0.0120       243.5347
    470.00       237.5884         0.0121         0.0121         0.0121       237.5884         0.0121         0.0121         0.0121       237.5884
    480.00       231.9503         0.0122         0.0122         0.0122       231.9503         0.0122         0.0122         0.0122       231.9503
    490.00       226.5961         0.0123         0.0123         0.0123       226.5961         0.0123         0.0123         0.0123       226.5961
    500.00       221.5039         0.0123         0.0123         0.0123       221.5039         0.0123         0.0123         0.0123       221.5039
    510.00       216.6541         0.0124         0.0124         0.0124       216.6541         0.0124         0.0124         0.0124       216.6541
    520.00       212.0288         0.0125         0.0125         0.0125       212.0288         0.0125         0.0125         0.0125       212.0288
    530.00       207.6121         0.0125         0.0125         0.0125       207.6121         0.0125         0.0125         0.0125       207.6121
    540.00       203.3894         0.0125         0.0125         0.0125       203.3894         0.0125         0.0125         0.0125       203.3894
    550.00       199.3476         0.0126         0.0126         0.0126       199.3476         0.0126         0.0126         0.0126       199.3476
    560.00       195.4747         0.0126         0.0126         0.0126       195.4747         0.0126         0.0126         0.0126       195.4747
    570.00       191.7598         0.0126         0.0126         0.0126       191.7598         0.0126         0.0126         0.0126       191.7598
    580.00       188.1928         0.0126         0.0126         0.0126       188.1928         0.0126         0.0126         0.0126       188.1928
    590.00       184.7647         0.0126         0.0126         0.0126       184.7647         0.0126         0.0126         0.0126       184.7647
    600.00       181.4670         0.0126         0.0126         0.0126       181.4670         0.0126         0.0126         0.0126       181.4670
    610.00       178.2920         0.0126         0.0126         0.0126       178.2920         0.0126         0.0126         0.0126       178.2920
    620.00       175.2327         0.0125         0.0125         0.0125       175.2327         0.0125         0.0125         0.0125       175.2327
    630.00       172.2826         0.0125         0.0125         0.0125       172.2826         0.0125         0.0125         0.0125       172.2826
    640.00       169.4355         0.0125         0.0125         0.0125       169.4355         0.0125         0.0125         0.0125       169.4355
    650.00       166.6859         0.0125         0.0125         0.0125       166.6859         0.0125         0.0125         0.0125       166.6859
    660.00       164.0287         0.0124         0.0124         0.0124       164.0287         0.0124         0.0124         0.0124       164.0287
    670.00       161.4590         0.0124         0.0124         0.0124       161.4590         0.0124         0.0124         0.0124       161.4590
    680.00       158.9723         0.0123         0.0123         0.0123       158.9723         0.0123         0.0123         0.0123       158.9723
    690.00       156.5645         0.0123         0.0123         0.0123       156.5645         0.0123         0.0123         0.0123       156.5645
    700.00       154.2318         0.0122         0.0122         0.0122       154.2318         0.0122         0.0122         0.0122       154.2318
    710.00       151.9705         0.0122         0.0122         0.0122       151.9705         0.0122         0.0122         0.0122       151.9705
    720.00       149.7772         0.0121         0.0121         0.0121       149.7772         0.0121         0.0121         0.0121       149.7772
    730.00       147.6488         0.0121         0.0121         0.0121       147.6488         0.0121         0.0121         0.0121       147.6488
    740.00       145.5824         0.0120         0.0120         0.0120       145.5824         0.0120         0.0120         0.0120       145.5824
    750.00       143.5751         0.0120         0.0120         0.0120       143.5751         0.0120         0.0120         0.0120       143.5751
    760.00       141.6243         0.0119         0.0119         0.0119       141.6243         0.0119         0.0119         0.0119       141.6243
    770.00       139.7276         0.0119         0.0119         0.0119       139.7276         0.0119         0.0119         0.0119       139.7276
    780.00       137.8827         0.0118         0.0118         0.0118       137.8827         0.0118         0.0118         0.0118       137.8827
    790.00       136.0874         0.0117         0.0117         0.0117       136.0874         0.0117         0.0117         0.0117       136.0874
    800.00       134.3396         0.0117         0.0117         0.0117       134.3396         0.0117         0.0117         0.0117       134.3396
    810.00       132.6375         0.0116         0.0116         0.0116       132.6375         0.0116         0.0116         0.0116       132.6375
    820.00       130.9792         0.0115         0.0115         0.0115       130.9792         0.0115         0.0115         0.0115       130.9792
    830.00       129.3630         0.0115         0.0115         0.0115       129.3630         0.0115         0.0115         0.0115       129.3630
    840.00       127.7872         0.0114         0.0114         0.0114       127.7872         0.0114         0.0114         0.0114       127.7872
    850.00       126.2503         0.0113         0.0113         0.0113       126.2503         0.0113         0.0113         0.0113       126.2503
    860.00       124.7508         0.0113         0.0113         0.0113       124.7508         0.0113         0.0113         0.0113       124.7508
    870.00       123.2873         0.0112         0.0112         0.0112       123.2873         0.0112         0.0112         0.0112       123.2873
    880.00       121.8586         0.0111         0.0111         0.0111       121.8586         0.0111         0.0111         0.0111       121.8586
    890.00       120.4633         0.0111         0.0111         0.0111       120.4633         0.0111         0.0111         0.0111       120.4633
    900.00       119.1003         0.0110         0.0110         0.0110       119.1003         0.0110         0.0110         0.0110       119.1003
    910.00       117.7685         0.0109         0.0109         0.0109       117.7685         0.0109         0.0109         0.0109       117.7685
    920.00       116.4666         0.0109         0.0109         0.0109       116.4666         0.0109         0.0109         0.0109       116.4666
    930.00       115.1938         0.0108         0.0108         0.0108       115.1938         0.0108         0.0108         0.0108       115.1938
    940.00       113.9490         0.0107         0.0107         0.0107       113.9490         0.0107         0.0107         0.0107       113.9490
    950.00       112.7313         0.0107         0.0107         0.0107       112.7313         0.0107         0.0107         0.0107       112.7313
    960.00       111.5398         0.0106         0.0106         0.0106       111.5398         0.0106         0.0106         0.0106       111.5398
    970.00       110.3736         0.0105         0.0105         0.0105       110.3736         0.0105         0.0105         0.0105       110.3736
    980.00       109.2320         0.0105         0.0105         0.0105       109.2320         0.0105         0.0105         0.0105       109.2320
    990.00       108.1141         0.0104         0.0104         0.0104       108.1141         0.0104         0.0104         0.0104       108.1141
   1000.00       107.0192         0.0103         0.0103         0.0103       107.0192         0.0103         0.0103         0.0103       107.0192
