# Temperature [K], Thermal Conductivity (xx, xy, xz, yx, yy, yz, zx, zy, zz) [W/mK]
      0.00         0.0000         0.0000         0.0000         0.0000         0.0000         0.0000         0.0000         0.0000         0.0000
     10.00       359.1299       -20.0459        -0.0132       -20.0459       385.8664        -0.0271        -0.0132        -0.0271       320.0303
     20.00       202.2598       -10.5454        -0.7478       -10.5454       218.1410        -1.6734        -0.7478        -1.6734       203.4481
     30.00       134.1809        -8.8074        -1.9584        -8.8074       147.7546        -3.3899        -1.9584        -3.3899       136.8900
     40.00       103.9120        -6.5066        -2.6404        -6.5066       117.1107        -3.6934        -2.6404        -3.6934       104.0808
     50.00        90.1208        -4.7984        -2.8526        -4.7984       102.9514        -3.3634        -2.8526        -3.3634        88.3641
     60.00        81.9565        -3.7038        -2.8088        -3.7038        94.2358        -2.8852        -2.8088        -2.8852        79.1054
     70.00        75.8253        -3.0055        -2.6544        -3.0055        87.4186        -2.4346        -2.6544        -2.4346        72.4040
     80.00        70.6103        -2.5424        -2.4649        -2.5424        81.4728        -2.0568        -2.4649        -2.0568        66.9249
     90.00        65.9637        -2.2187        -2.2747        -2.2187        76.1099        -1.7523        -2.2747        -1.7523        62.1918
    100.00        61.7653        -1.9802        -2.0977        -1.9802        71.2394        -1.5095        -2.0977        -1.5095        58.0094
    110.00        57.9596        -1.7961        -1.9383        -1.7961        66.8170        -1.3156        -1.9383        -1.3156        54.2781
    120.00        54.5084        -1.6485        -1.7966        -1.6485        62.8061        -1.1596        -1.7966        -1.1596        50.9331
    130.00        51.3780        -1.5264        -1.6713        -1.5264        59.1701        -1.0327        -1.6713        -1.0327        47.9247
    140.00        48.5363        -1.4230        -1.5606        -1.4230        55.8725        -0.9284        -1.5606        -0.9284        45.2115
    150.00        45.9535        -1.3340        -1.4624        -1.3340        52.8781        -0.8417        -1.4624        -0.8417        42.7577
    160.00        43.6017        -1.2561        -1.3750        -1.2561        50.1541        -0.7689        -1.3750        -0.7689        40.5323
    170.00        41.4557        -1.1872        -1.2970        -1.1872        47.6706        -0.7070        -1.2970        -0.7070        38.5080
    180.00        39.4930        -1.1257        -1.2270        -1.1257        45.4012        -0.6540        -1.2270        -0.6540        36.6615
    190.00        37.6936        -1.0704        -1.1639        -1.0704        43.3220        -0.6082        -1.1639        -0.6082        34.9721
    200.00        36.0398        -1.0203        -1.1068        -1.0203        41.4123        -0.5683        -1.1068        -0.5683        33.4223
    210.00        34.5160        -0.9748        -1.0549        -0.9748        39.6538        -0.5332        -1.0549        -0.5332        31.9964
    220.00        33.1087        -0.9331        -1.0076        -0.9331        38.0305        -0.5022        -1.0076        -0.5022        30.6811
    230.00        31.8057        -0.8948        -0.9642        -0.8948        36.5282        -0.4746        -0.9642        -0.4746        29.4648
    240.00        30.5965        -0.8596        -0.9244        -0.8596        35.1348        -0.4499        -0.9244        -0.4499        28.3371
    250.00        29.4720        -0.8270        -0.8877        -0.8270        33.8393        -0.4276        -0.8877        -0.4276        27.2892
    260.00        28.4239        -0.7967        -0.8538        -0.7967        32.6324        -0.4075        -0.8538        -0.4075        26.3133
    270.00        27.4450        -0.7686        -0.8223        -0.7686        31.5055        -0.3893        -0.8223        -0.3893        25.4024
    280.00        26.5290        -0.7423        -0.7931        -0.7423        30.4513        -0.3726        -0.7931        -0.3726        24.5506
    290.00        25.6703        -0.7178        -0.7659        -0.7178        29.4631        -0.3573        -0.7659        -0.3573        23.7523
    300.00        24.8637        -0.6949        -0.7404        -0.6949        28.5353        -0.3433        -0.7404        -0.3433        23.0029
    310.00        24.1049        -0.6733        -0.7166        -0.6733        27.6626        -0.3303        -0.7166        -0.3303        22.2982
    320.00        23.3898        -0.6530        -0.6943        -0.6530        26.8403        -0.3183        -0.6943        -0.3183        21.6343
    330.00        22.7149        -0.6339        -0.6733        -0.6339        26.0643        -0.3072        -0.6733        -0.3072        21.0079
    340.00        22.0769        -0.6159        -0.6535        -0.6159        25.3310        -0.2968        -0.6535        -0.2968        20.4160
    350.00        21.4730        -0.5988        -0.6349        -0.5988        24.6369        -0.2872        -0.6349        -0.2872        19.8559
    360.00        20.9006        -0.5827        -0.6173        -0.5827        23.9791        -0.2781        -0.6173        -0.2781        19.3251
    370.00        20.3573        -0.5674        -0.6006        -0.5674        23.3549        -0.2696        -0.6006        -0.2696        18.8215
    380.00        19.8411        -0.5529        -0.5848        -0.5529        22.7618        -0.2617        -0.5848        -0.2617        18.3430
    390.00        19.3499        -0.5390        -0.5698        -0.5390        22.1975        -0.2542        -0.5698        -0.2542        17.8878
    400.00        18.8820        -0.5259        -0.5556        -0.5259        21.6601        -0.2471        -0.5556        -0.2471        17.4543
    410.00        18.4359        -0.5134        -0.5421        -0.5134        21.1477        -0.2405        -0.5421        -0.2405        17.0411
    420.00        18.0101        -0.5014        -0.5292        -0.5014        20.6586        -0.2342        -0.5292        -0.2342        16.6466
    430.00        17.6032        -0.4900        -0.5169        -0.4900        20.1914        -0.2282        -0.5169        -0.2282        16.2698
    440.00        17.2140        -0.4791        -0.5051        -0.4791        19.7445        -0.2225        -0.5051        -0.2225        15.9094
    450.00        16.8414        -0.4687        -0.4939        -0.4687        19.3167        -0.2171        -0.4939        -0.2171        15.5645
    460.00        16.4845        -0.4587        -0.4832        -0.4587        18.9069        -0.2120        -0.4832        -0.2120        15.2340
    470.00        16.1421        -0.4491        -0.4729        -0.4491        18.5139        -0.2071        -0.4729        -0.2071        14.9172
    480.00        15.8136        -0.4399        -0.4630        -0.4399        18.1367        -0.2025        -0.4630        -0.2025        14.6131
    490.00        15.4979        -0.4311        -0.4536        -0.4311        17.7744        -0.1980        -0.4536        -0.1980        14.3210
    500.00        15.1945        -0.4226        -0.4445        -0.4226        17.4261        -0.1938        -0.4445        -0.1938        14.0402
    510.00        14.9027        -0.4145        -0.4358        -0.4145        17.0911        -0.1897        -0.4358        -0.1897        13.7702
    520.00        14.6217        -0.4066        -0.4274        -0.4066        16.7686        -0.1858        -0.4274        -0.1858        13.5102
    530.00        14.3510        -0.3991        -0.4194        -0.3991        16.4580        -0.1820        -0.4194        -0.1820        13.2598
    540.00        14.0901        -0.3918        -0.4116        -0.3918        16.1585        -0.1785        -0.4116        -0.1785        13.0184
    550.00        13.8384        -0.3848        -0.4041        -0.3848        15.8697        -0.1750        -0.4041        -0.1750        12.7856
    560.00        13.5955        -0.3780        -0.3969        -0.3780        15.5909        -0.1717        -0.3969        -0.1717        12.5609
    570.00        13.3609        -0.3714        -0.3899        -0.3714        15.3217        -0.1685        -0.3899        -0.1685        12.3439
    580.00        13.1342        -0.3651        -0.3832        -0.3651        15.0615        -0.1654        -0.3832        -0.1654        12.1342
    590.00        12.9149        -0.3590        -0.3767        -0.3590        14.8100        -0.1625        -0.3767        -0.1625        11.9315
    600.00        12.7029        -0.3531        -0.3704        -0.3531        14.5667        -0.1596        -0.3704        -0.1596        11.7354
    610.00        12.4976        -0.3474        -0.3644        -0.3474        14.3312        -0.1569        -0.3644        -0.1569        11.5456
    620.00        12.2988        -0.3418        -0.3585        -0.3418        14.1031        -0.1542        -0.3585        -0.1542        11.3617
    630.00        12.1062        -0.3365        -0.3528        -0.3365        13.8821        -0.1517        -0.3528        -0.1517        11.1837
    640.00        11.9195        -0.3313        -0.3473        -0.3313        13.6679        -0.1492        -0.3473        -0.1492        11.0110
    650.00        11.7384        -0.3262        -0.3419        -0.3262        13.4602        -0.1468        -0.3419        -0.1468        10.8436
    660.00        11.5628        -0.3213        -0.3368        -0.3213        13.2586        -0.1445        -0.3368        -0.1445        10.6812
    670.00        11.3922        -0.3166        -0.3317        -0.3166        13.0630        -0.1422        -0.3317        -0.1422        10.5236
    680.00        11.2266        -0.3120        -0.3269        -0.3120        12.8730        -0.1400        -0.3269        -0.1400        10.3705
    690.00        11.0657        -0.3075        -0.3221        -0.3075        12.6884        -0.1379        -0.3221        -0.1379        10.2217
    700.00        10.9094        -0.3031        -0.3175        -0.3031        12.5091        -0.1359        -0.3175        -0.1359        10.0772
    710.00        10.7574        -0.2989        -0.3130        -0.2989        12.3347        -0.1339        -0.3130        -0.1339         9.9367
    720.00        10.6095        -0.2948        -0.3087        -0.2948        12.1651        -0.1320        -0.3087        -0.1320         9.8000
    730.00        10.4656        -0.2908        -0.3045        -0.2908        12.0000        -0.1301        -0.3045        -0.1301         9.6670
    740.00        10.3255        -0.2869        -0.3004        -0.2869        11.8394        -0.1283        -0.3004        -0.1283         9.5375
    750.00        10.1892        -0.2831        -0.2963        -0.2831        11.6829        -0.1265        -0.2963        -0.1265         9.4115
    760.00        10.0563        -0.2794        -0.2924        -0.2794        11.5306        -0.1248        -0.2924        -0.1248         9.2887
    770.00         9.9269        -0.2758        -0.2886        -0.2758        11.3821        -0.1231        -0.2886        -0.1231         9.1691
    780.00         9.8008        -0.2723        -0.2849        -0.2723        11.2374        -0.1215        -0.2849        -0.1215         9.0525
    790.00         9.6778        -0.2688        -0.2813        -0.2688        11.0964        -0.1199        -0.2813        -0.1199         8.9389
    800.00         9.5578        -0.2655        -0.2778        -0.2655        10.9588        -0.1184        -0.2778        -0.1184         8.8280
    810.00         9.4408        -0.2622        -0.2744        -0.2622        10.8245        -0.1168        -0.2744        -0.1168         8.7198
    820.00         9.3265        -0.2591        -0.2710        -0.2591        10.6935        -0.1154        -0.2710        -0.1154         8.6143
    830.00         9.2150        -0.2560        -0.2678        -0.2560        10.5656        -0.1140        -0.2678        -0.1140         8.5112
    840.00         9.1062        -0.2529        -0.2646        -0.2529        10.4408        -0.1126        -0.2646        -0.1126         8.4106
    850.00         8.9998        -0.2500        -0.2615        -0.2500        10.3188        -0.1112        -0.2615        -0.1112         8.3124
    860.00         8.8959        -0.2471        -0.2584        -0.2471        10.1997        -0.1099        -0.2584        -0.1099         8.2164
    870.00         8.7944        -0.2443        -0.2555        -0.2443        10.0832        -0.1086        -0.2555        -0.1086         8.1226
    880.00         8.6952        -0.2415        -0.2526        -0.2415         9.9694        -0.1073        -0.2526        -0.1073         8.0308
    890.00         8.5981        -0.2388        -0.2497        -0.2388         9.8581        -0.1061        -0.2497        -0.1061         7.9412
    900.00         8.5032        -0.2362        -0.2470        -0.2362         9.7493        -0.1049        -0.2470        -0.1049         7.8535
    910.00         8.4104        -0.2336        -0.2442        -0.2336         9.6428        -0.1037        -0.2442        -0.1037         7.7677
    920.00         8.3195        -0.2311        -0.2416        -0.2311         9.5386        -0.1025        -0.2416        -0.1025         7.6838
    930.00         8.2306        -0.2286        -0.2390        -0.2286         9.4367        -0.1014        -0.2390        -0.1014         7.6016
    940.00         8.1436        -0.2262        -0.2364        -0.2262         9.3368        -0.1003        -0.2364        -0.1003         7.5212
    950.00         8.0584        -0.2238        -0.2340        -0.2238         9.2391        -0.0992        -0.2340        -0.0992         7.4425
    960.00         7.9749        -0.2215        -0.2315        -0.2215         9.1434        -0.0982        -0.2315        -0.0982         7.3654
    970.00         7.8932        -0.2192        -0.2291        -0.2192         9.0497        -0.0971        -0.2291        -0.0971         7.2898
    980.00         7.8131        -0.2170        -0.2268        -0.2170         8.9578        -0.0961        -0.2268        -0.0961         7.2159
    990.00         7.7346        -0.2148        -0.2245        -0.2148         8.8678        -0.0951        -0.2245        -0.0951         7.1433
   1000.00         7.6577        -0.2127        -0.2223        -0.2127         8.7796        -0.0942        -0.2223        -0.0942         7.0723
