# k-axis, Phonon energy [meV], band-1, band-2, band-3, band-4, band-5, band-6, band-7
     1     0.000000    0.000000     0.000000     0.000000    18.923724    18.923724    18.923724    42.977196    42.977196    42.977196    67.673293    67.673293    67.673293 
     2     0.011992    0.949358     0.949358     1.270688    18.945520    18.945520    18.954744    42.954421    42.954421    42.959764    67.635925    67.658502    67.658502 
     3     0.023983    1.894669     1.894669     2.536253    19.010907    19.010907    19.047791    42.886083    42.886083    42.907519    67.523860    67.614192    67.614192 
     4     0.035975    2.831859     2.831859     3.791519    19.119836    19.119836    19.202828    42.772269    42.772269    42.820696    67.337171    67.540560    67.540560 
     5     0.047967    3.756806     3.756806     5.031225    19.272257    19.272257    19.419793    42.613054    42.613054    42.699629    67.076007    67.437942    67.437942 
     6     0.059958    4.665319     4.665320     6.250004    19.468046    19.468046    19.698612    42.408574    42.408574    42.544853    66.740579    67.306783    67.306783 
     7     0.071950    5.553145     5.553145     7.442414    19.707055    19.707055    20.039098    42.159064    42.159064    42.357060    66.331160    67.147667    67.147667 
     8     0.083941    6.415972     6.415972     8.603022    19.988985    19.988985    20.440880    41.864798    41.864798    42.137169    65.848047    66.961313    66.961313 
     9     0.095933    7.249468     7.249468     9.726572    20.313429    20.313429    20.903226    41.526196    41.526196    41.886333    65.291637    66.748526    66.748526 
    10     0.107925    8.049326     8.049326    10.808228    20.679690    20.679690    21.424798    41.143804    41.143804    41.606014    64.662327    66.510261    66.510261 
    11     0.119916    8.811327     8.811327    11.843886    21.086717    21.086717    22.003202    40.718392    40.718392    41.298073    63.960613    66.247535    66.247535 
    12     0.131908    9.531398     9.531398    12.830517    21.532970    21.532970    22.634644    40.250950    40.250950    40.964852    63.187002    65.961513    65.961513 
    13     0.143900   10.205658    10.205658    13.766429    22.016294    22.016294    23.313509    39.742868    39.742868    40.609351    62.342066    65.653423    65.653423 
    14     0.155891   10.830408    10.830408    14.651423    22.533749    22.533749    24.031948    39.196004    39.196004    40.235502    61.426399    65.324591    65.324591 
    15     0.167883   11.402071    11.402071    15.486701    23.081493    23.081493    24.779721    38.612877    38.612877    39.848474    60.440647    64.976393    64.976393 
    16     0.179875   11.917023    11.917023    16.274607    23.654628    23.654628    25.543872    37.996944    37.996944    39.455160    59.385465    64.610305    64.610305 
    17     0.191866   12.371342    12.371342    17.018201    24.247041    24.247041    26.308494    37.352942    37.352942    39.064995    58.261537    64.227839    64.227839 
    18     0.203858   12.760431    12.760431    17.720833    24.851084    24.851084    27.054097    36.687566    36.687566    38.690885    57.069556    63.830545    63.830545 
    19     0.215850   13.078551    13.078551    18.385726    25.456975    25.456987    27.756791    36.010301    36.010301    38.350547    55.810229    63.420047    63.420047 
    20     0.227841   13.318242    13.318242    19.015643    26.051831    26.051831    28.387391    35.334895    35.334895    38.067687    54.484226    62.997933    62.997933 
    21     0.239833   13.469596    13.469596    19.612632    26.617663    26.617663    28.911690    34.681768    34.681768    37.872009    53.092216    62.565875    62.565875 
    22     0.251824   13.519486    13.519486    20.177844    27.128386    27.128386    29.293833    34.081433    34.081433    37.795948    51.634831    62.125485    62.125485 
    23     0.263816   13.450553    13.450553    20.711367    27.546236    27.546236    29.504996    33.578470    33.578470    37.866306    50.112592    61.678413    61.678413 
    24     0.275808   13.240134    13.240134    21.211875    27.822364    27.822364    29.534528    33.231041    33.231041    38.093289    48.525970    61.226283    61.226283 
    25     0.287799   12.858846    12.858846    21.676242    27.913663    27.913663    29.395484    33.093895    33.093895    38.465489    46.875276    60.770694    60.770694 
    26     0.299791   12.268536    12.268536    22.098654    27.816463    27.816463    29.119741    33.183780    33.183780    38.955607    45.160645    60.313232    60.313232 
    27     0.311783   11.418081    11.418081    22.469230    27.579165    27.579165    28.748557    33.465252    33.465252    39.531296    43.381953    59.855424    59.855424 
    28     0.323774   10.232408    10.232408    22.771655    27.271273    27.271273    28.326938    33.879494    33.879494    40.163160    41.538768    59.398793    59.398793 
    29     0.335766    8.578207     8.578208    22.980102    26.950500    26.950500    27.903794    34.375154    34.375154    39.630207    40.827693    58.944778    58.944791 
    30     0.347758    6.117347     6.117347    23.057912    26.653010    26.653010    27.533404    34.916872    34.916872    37.654772    41.507140    58.494830    58.494830 
    31     0.359749   -1.764506    -1.764506    22.965175    26.396768    26.396768    27.268979    35.482035    35.482035    35.610118    42.188386    58.050325    58.050325 
    32     0.371741   -6.867253    -6.867253    22.680901    26.187465    26.187465    27.141776    33.492775    36.056161    36.056161    42.861684    57.612601    57.612601 
    33     0.383733   -9.683515    -9.683515    22.220613    26.023514    26.023514    27.144528    31.297586    36.629643    36.629655    43.519720    57.182998    57.182998 
    34     0.395724  -11.916544   -11.916542    21.625075    25.899720    25.899720    27.243415    29.016936    37.195835    37.195835    44.156878    56.762817    56.762817 
    35     0.407716  -13.819257   -13.819257    20.936775    25.809537    25.809537    26.639483    27.402146    37.749802    37.749802    44.768794    56.353361    56.353361 
    36     0.419707  -15.487706   -15.487706    20.188903    24.147907    25.746406    25.746406    27.593386    38.287776    38.287776    45.351983    55.955968    55.955968 
    37     0.431699  -16.969961   -16.969961    19.405300    21.514646    25.704364    25.704364    27.799081    38.806633    38.806633    45.903620    55.572014    55.572014 
    38     0.443691  -18.294104   -18.294104    18.603534    18.693097    25.678328    25.678328    28.007739    39.303644    39.303644    46.421410    55.202938    55.202938 
    39     0.455682  -19.478262   -19.478262    15.596225    17.797478    25.664108    25.664108    28.211909    39.776293    39.776293    46.903407    54.850302    54.850302 
    40     0.467674  -20.534981   -20.534981    12.031106    16.999171    25.658318    25.658318    28.406707    40.222162    40.222162    47.348024    54.515829    54.515829 
    41     0.479666  -21.473311   -21.473311     7.372398    16.219882    25.658318    25.658318    28.588759    40.638760    40.638760    47.753885    54.201390    54.201390 
    42     0.491657  -22.300047   -22.300047    -5.250939    15.470894    25.662037    25.662037    28.755723    41.023531    41.023531    48.119824    53.909108    53.909108 
    43     0.503649  -23.020346   -23.020346   -10.034434    14.763923    25.667902    25.667902    28.905900    41.373725    41.373725    48.444900    53.641348    53.641348 
    44     0.515641  -23.638225   -23.638225   -12.833554    14.111329    25.674721    25.674721    29.038025    41.686428    41.686428    48.728269    53.400703    53.400703 
    45     0.527632  -24.156784   -24.156784   -14.810130    13.526181    25.681614    25.681614    29.151169    41.958613    41.958613    48.969248    53.189962    53.189962 
    46     0.539624  -24.578403   -24.578403   -16.259927    13.021892    25.687949    25.687949    29.244638    42.187133    42.187133    49.167282    53.012025    53.012025 
    47     0.551615  -24.904929   -24.904929   -17.310422    12.611729    25.693280    25.693280    29.317898    42.368975    42.368975    49.321922    52.869758    52.869758 
    48     0.563607  -25.137676   -25.137676   -18.027535    12.307870    25.697285    25.697285    29.370589    42.501385    42.501385    49.432822    52.765752    52.765752 
    49     0.575599  -25.277576   -25.277576   -18.447356    12.120298    25.699765    25.699765    29.402427    42.582158    42.582158    49.499746    52.702150    52.702150 
    50     0.587590  -25.325109   -25.325109   -18.588334    12.055628    25.700620    25.700620    29.413288    42.609831    42.609831    49.522559    52.680292    52.680292 
    51     0.587590  -25.325109   -25.325097   -18.588321    12.055629    25.700620    25.700632    29.413288    42.609818    42.609843    49.522546    52.680292    52.680292 
    52     0.604549  -25.291089   -25.270893   -18.494741    12.092808    25.653991    25.715275    29.309095    42.612843    42.626655    49.366828    52.664534    52.815877 
    53     0.621508  -25.191149   -25.112211   -18.219679    12.199918    25.517663    25.758271    29.005493    42.621088    42.676123    48.969893    52.618153    53.154193 
    54     0.638467  -25.025673   -24.851122   -17.762801    12.370783    25.293420    25.829572    28.509536    42.632953    42.758557    48.430927    52.540988    53.597843 
    55     0.655425  -24.795182   -24.491046   -17.124266    12.595215    24.984561    25.929090    27.833597    42.646330    42.874478    47.816172    52.432717    54.083337 
    56     0.672384  -24.500407   -24.037094   -16.306432    12.858958    24.596243    26.056728    26.997104    42.659063    43.024544    47.162091    52.292941    54.577905 
    57     0.689343  -24.142328   -23.496330   -15.317679    13.143442    24.136141    26.030122    26.212335    42.669428    43.209547    46.489884    52.121142    55.064713 
    58     0.706302  -23.722122   -22.878166   -14.181700    13.425918    23.615115    24.980110    26.395788    42.676458    43.430368    45.813548    51.916675    55.534572 
    59     0.723260  -23.241179   -22.194937   -12.958724    13.682768    23.048118    23.922090    26.606901    42.679991    43.687924    45.143511    51.678844    55.982165 
    60     0.740219  -22.701135   -21.462463   -11.790060    13.903948    22.454923    22.968014    26.845513    42.680735    43.983145    44.488078    51.406844    56.404242 
    61     0.757178  -22.103824   -20.700445   -10.959105    14.128637    21.860774    22.257596    27.111438    42.680177    43.854193    44.316862    51.099820    56.798771 
    62     0.774137  -21.451330   -19.932587   -10.850360    14.470326    21.296169    21.909274    27.404465    42.680487    43.247708    44.689769    50.756829    57.164500 
    63     0.791095  -20.745970   -19.185496   -11.629157    15.032327    20.795463    21.960391    27.724358    42.673445    42.684491    45.102411    50.376917    57.500746 
    64     0.808054  -19.990262   -18.486001   -13.025822    15.782542    20.393445    22.366661    28.070808    42.135211    42.695625    45.555075    49.959117    57.807262 
    65     0.825013  -19.186934   -17.856331   -14.637550    16.600587    20.119797    23.047200    28.443479    41.635782    42.718028    46.047771    49.502412    58.084258 
    66     0.841972  -18.338861   -17.307868   -16.197355    17.391493    19.992643    23.915407    28.841864    41.176734    42.756586    46.580203    49.005847    58.332404 
    67     0.858930  -17.575120   -17.449057   -16.835790    18.115772    20.013868    24.890919    29.265343    40.758338    42.817063    47.151702    48.468481    58.552915 
    68     0.875889  -18.713541   -16.520571   -16.417221    18.768650    20.168769    25.906043    29.713096    40.379344    42.906354    47.761225    47.889420    58.747625 
    69     0.892848  -19.587092   -16.013914   -15.556378    19.358212    20.430292    26.908260    30.184034    40.036861    43.032503    47.267883    48.407346    58.919077 
    70     0.909806  -20.183064   -15.577740   -14.559244    19.894537    20.765968    27.858690    30.676843    39.726168    43.204811    46.603177    49.088232    59.070631 
    71     0.926765  -20.493175   -15.055784   -13.531450    20.386379    21.144169    28.728782    31.189847    39.440666    43.433517    45.894743    49.801663    59.206500 
    72     0.943724  -20.510061   -14.392640   -12.474545    20.840951    21.538004    29.497632    31.721101    39.171940    43.729271    45.142197    50.545047    59.331819 
    73     0.960683  -20.225453   -13.528536   -11.388846    21.264727    21.926991    30.150510    32.268287    38.909982    44.102116    44.345328    51.315409    59.452551 
    74     0.977641  -19.629121   -12.391560   -10.272699    21.664228    22.296923    30.678640    32.828850    38.643649    43.504173    44.560321    52.109476    59.575378 
    75     0.994600  -18.707702   -10.877727    -9.121252    22.046979    22.639182    31.079455    33.399902    38.361235    42.619005    45.109206    52.923653    59.707503 
    76     1.011559  -17.443093    -8.790863    -7.924021    22.422205    22.949851    31.357034    33.978393    38.051346    41.690395    45.750566    53.754095    59.856267 
    77     1.028518  -15.808814    -6.659520    -5.542429    22.801224    23.228967    31.522287    34.561124    37.703992    40.719285    46.482929    54.596725    60.028698 
    78     1.045476  -13.761284    -5.280600     4.543323    23.197142    23.480262    31.593303    35.144772    37.311893    39.706951    47.302263    55.447265    60.231083 
    79     1.062435  -11.212580    -3.657722     8.695057    23.622405    23.711212    31.596576    35.725953    36.872198    38.655203    48.202990    56.301339    60.468418 
    80     1.079394   -7.914658    -0.889136    11.505777    23.933050    24.082235    31.570304    36.300836    36.388676    37.566795    49.178799    57.154420    60.744038 
    81     1.096353   -2.013811     3.152844    13.729074    24.159896    24.561591    31.570081    35.874940    36.435887    36.874826    50.223021    58.001948    61.059295 
    82     1.113311    4.346082     6.819434    15.514448    24.403864    25.008799    31.673753    35.284634    35.359170    37.426103    51.328588    58.839358    61.413543 
    83     1.130270    5.112527     9.309534    16.893552    24.661271    25.334284    31.971888    34.102522    34.890377    37.966321    52.487652    59.662077    61.804129 
    84     1.147229    5.637351    10.754884    17.873899    24.888898    25.450800    32.526289    32.897795    34.543556    38.489455    53.691200    60.465579    62.226653 
    85     1.164188    5.992291    11.582250    18.480533    24.991814    25.330354    31.676456    33.324001    34.412348    38.992789    54.928583    61.245438    62.675312 
    86     1.181146    6.214137    11.980934    18.762637    24.861461    25.007807    30.445496    34.289173    34.572964    39.473930    56.187339    61.997377    63.143225 
    87     1.198105    6.324255    12.061827    18.771998    24.450579    24.540390    29.213097    35.034541    35.333841    39.930697    57.453237    62.717205    63.622779 
    88     1.215064    6.335642    11.895576    18.539696    23.803962    23.980050    27.988845    35.733602    36.388824    40.361131    58.710555    63.400954    64.106041 
    89     1.232023    6.256048    11.528516    18.066167    23.024834    23.367540    26.783871    36.578501    37.408175    40.763434    59.942656    64.044845    64.584963 
    90     1.248981    6.089589    10.991860    17.328251    22.229602    22.734374    25.610995    37.488143    38.363900    41.135981    61.132567    64.645304    65.051637 
    91     1.265940    5.837773    10.307712    16.306606    21.509513    22.105609    24.484612    38.403189    39.239955    41.477311    62.263611    65.199036    65.498485 
    92     1.282899    5.500381     9.493130    15.015553    20.903970    21.501417    23.420553    39.282939    40.027749    41.786120    63.319921    65.702965    65.918430 
    93     1.299858    5.076439     8.562795    13.501112    20.408187    20.938077    22.435483    40.099670    40.723140    42.061244    64.286915    66.154339    66.304926 
    94     1.316816    4.565406     7.530626    11.816202    20.002326    20.428519    21.546149    40.834226    41.324592    42.301703    65.151465    66.550654    66.652107 
    95     1.333775    3.968542     6.410588    10.005074    19.669886    19.982836    20.768311    41.473108    41.831893    42.506605    65.902201    66.889752    66.954779 
    96     1.350734    3.290268     5.216968     8.101183    19.401494    19.608764    20.115557    42.006656    42.245553    42.675230    66.529441    67.169760    67.208529 
    97     1.367693    2.539176     3.964345     6.129921    19.193121    19.312166    19.598597    42.427927    42.566264    42.806996    67.025373    67.389155    67.409711 
    98     1.384651    1.728398     2.667461     4.111507    19.043787    19.097346    19.224946    42.732050    42.794772    42.901444    67.383899    67.546722    67.555462 
    99     1.401610    0.875212     1.341093     2.063068    18.953802    18.967279    18.999204    42.915751    42.931621    42.958239    67.600740    67.641616    67.643736 
   100     1.418569    0.000000     0.000000     0.000000    18.923724    18.923724    18.923724    42.977196    42.977196    42.977196    67.673293    67.673293    67.673293 
   101     1.418569    0.000000     0.000000     0.000000    18.923724    18.923724    18.923724    42.977196    42.977196    42.977196    67.673293    67.673293    67.673293 
   102     1.428954    0.646500     0.646500     1.314184    18.931002    18.948062    18.948062    42.950813    42.966757    42.966757    67.646340    67.661676    67.661676 
   103     1.439339    1.289254     1.289254     2.624195    18.952649    19.021012    19.021012    42.871738    42.935477    42.935477    67.565629    67.626850    67.626850 
   104     1.449724    1.924610     1.924610     3.925799    18.988058    19.142450    19.142450    42.740134    42.883355    42.883355    67.431668    67.568914    67.568914 
   105     1.460109    2.549093     2.549093     5.214631    19.036311    19.312117    19.312117    42.556321    42.810480    42.810480    67.245301    67.488054    67.488054 
   106     1.470494    3.159503     3.159503     6.486100    19.096193    19.529602    19.529602    42.320747    42.716937    42.716937    67.007706    67.384519    67.384519 
   107     1.480879    3.752992     3.752992     7.735265    19.166304    19.794250    19.794250    42.034055    42.602826    42.602826    66.720395    67.258617    67.258617 
   108     1.491264    4.327149     4.327149     8.956635    19.245229    20.105130    20.105130    41.697078    42.468295    42.468295    66.385203    67.110721    67.110721 
   109     1.501649    4.880055     4.880055    10.143870    19.331780    20.460965    20.460965    41.310942    42.313506    42.313506    66.004324    66.941290    66.941290 
   110     1.512034    5.410330     5.410330    11.289287    19.425459    20.860131    20.860131    40.877086    42.138657    42.138657    65.580225    66.750820    66.750820 
   111     1.522419    5.917140     5.917140    12.383054    19.527148    21.300582    21.300582    40.397395    41.943984    41.943984    65.115747    66.539868    66.539868 
   112     1.532804    6.400192     6.400192    13.411884    19.640292    21.779926    21.779926    39.874324    41.729746    41.729746    64.613975    66.309066    66.309066 
   113     1.543190    6.859682     6.859682    14.356996    19.772764    22.295423    22.295423    39.311020    41.496267    41.496267    64.078344    66.059086    66.059086 
   114     1.553575    7.296237     7.296237    15.191455    19.939195    22.844071    22.844071    38.711627    41.243881    41.243881    63.512524    65.790632    65.790632 
   115     1.563960    7.710833     7.710833    15.878900    20.162024    23.422636    23.422636    38.081461    40.972972    40.972972    62.920445    65.504486    65.504486 
   116     1.574345    8.104708     8.104708    16.378775    20.465713    24.027783    24.027783    37.427392    40.684000    40.684000    62.306273    65.201429    65.201429 
   117     1.584730    8.479277     8.479277    16.661957    20.860577    24.656138    24.656138    36.758223    40.377459    40.377459    61.674335    64.882317    64.882317 
   118     1.595115    8.836058     8.836058    16.723960    21.328924    25.304343    25.304343    36.085061    40.053921    40.053921    61.029143    64.548030    64.548030 
   119     1.605500    9.176604     9.176604    16.577093    21.832023    25.969111    25.969111    35.421681    39.714005    39.714005    60.375272    64.199435    64.199435 
   120     1.615885    9.502452     9.502452    16.231685    22.328054    26.647282    26.647282    34.784560    39.358455    39.358455    59.717372    63.837463    63.837463 
   121     1.626270    9.815087     9.815087    15.685379    22.781970    27.335842    27.335842    34.192469    38.988065    38.988065    59.060092    63.463031    63.463031 
   122     1.636655   10.115917    10.115917    14.920708    23.166729    28.031878    28.031878    33.665244    38.603801    38.603801    58.407995    63.077119    63.077119 
   123     1.647040   10.406255    10.406255    13.903985    23.462508    28.732638    28.732638    33.221346    38.206743    38.206743    57.765518    62.680643    62.680643 
   124     1.657425   10.687307    10.687307    12.579147    23.656599    29.435394    29.435394    32.874475    37.798217    37.798217    57.136890    62.274584    62.274584 
   125     1.667810   10.846767    10.960173    10.960173    23.744278    30.137381    30.137381    32.630234    37.379871    37.379871    56.526077    61.859908    61.859908 
   126     1.678195    8.488558    11.225848    11.225848    23.729078    30.835512    30.835512    32.484235    36.953925    36.953925    55.936689    61.437570    61.437570 
   127     1.688580    4.702713    11.485215    11.485215    23.621203    31.525907    31.525907    32.423299    36.523677    36.523677    55.371972    61.008525    61.008525 
   128     1.698966   -5.599916    11.739050    11.739050    23.434514    32.202392    32.202392    32.428816    36.094930    36.094930    54.834680    60.573764    60.573764 
   129     1.709351   -9.353432    11.988020    11.988020    23.183243    32.480925    32.852096    32.852096    35.680452    35.680452    54.327081    60.134267    60.134267 
   130     1.719736  -12.057144    12.232683    12.232683    22.879901    32.561524    33.437456    33.437456    35.317910    35.317910    53.850874    59.691002    59.691002 
   131     1.730121  -14.288645    12.473479    12.473479    22.534493    32.655799    33.821818    33.821818    35.144226    35.144226    53.407249    59.244984    59.244984 
   132     1.740506  -16.219274    12.710727    12.710727    22.154755    32.752578    33.776764    33.776764    35.388318    35.388318    52.996801    58.797255    58.797255 
   133     1.750891  -17.926454    12.944603    12.944603    21.746700    32.843976    33.450597    33.450597    35.902525    35.902525    52.619592    58.348906    58.348906 
   134     1.761276  -19.452822    13.175144    13.175144    21.315299    32.924823    33.041030    33.041030    36.489880    36.489880    52.275225    57.901102    57.901102 
   135     1.771661  -20.824995    13.402226    13.402226    20.865028    32.607199    32.607199    32.992157    37.092175    37.092175    51.962832    57.455097    57.455097 
   136     1.782046  -22.061100    13.625538    13.625538    20.400227    32.167913    32.167913    33.044675    37.691544    37.691544    51.681212    57.012277    57.012277 
   137     1.792431  -23.174404    13.844537    13.844537    19.925396    31.731801    31.731801    33.082315    38.280338    38.280338    51.428863    56.574231    56.574231 
   138     1.802816  -24.175059    14.058489    14.058489    19.445408    31.304342    31.304342    33.105896    38.854055    38.854055    51.204137    56.142731    56.142731 
   139     1.813201  -25.071248    14.266391    14.266391    18.965568    30.889890    30.889890    33.116905    39.409225    39.409225    51.005236    55.719922    55.719922 
   140     1.823586  -25.869741    14.466966    14.466978    18.491741    30.492385    30.492385    33.117215    39.942599    39.942599    50.830374    55.308271    55.308271 
   141     1.833971  -26.576278    14.658676    14.658676    18.030312    30.115684    30.115684    33.108946    40.450769    40.450769    50.677780    54.910779    54.910779 
   142     1.844356  -27.195782    14.839650    14.839650    17.588187    29.763631    29.763631    33.094279    40.929865    40.929865    50.545803    54.531041    54.531041 
   143     1.854741  -27.732565    15.007829    15.007829    17.172693    29.440130    29.440130    33.075397    41.375449    41.375449    50.432919    54.173346    54.173346 
   144     1.865127  -28.190362    15.160857    15.160857    16.791392    29.149087    29.149087    33.054395    41.782301    41.782301    50.337777    53.842778    53.842778 
   145     1.875512  -28.572381    15.296280    15.296280    16.451948    28.894394    28.894394    33.033157    42.144472    42.144472    50.259186    53.545263    53.545263 
   146     1.885897  -28.881364    15.411582    15.411582    16.161748    28.679748    28.679748    33.013370    42.455240    42.455240    50.196167    53.287447    53.287447 
   147     1.896282  -29.119567    15.504381    15.504381    15.927611    28.508556    28.508556    32.996446    42.707539    42.707539    50.147926    53.076408    53.076408 
   148     1.906667  -29.288738    15.572520    15.572520    15.755428    28.383746    28.383746    32.983503    42.894390    42.894390    50.113832    52.919078    52.919078 
   149     1.917052  -29.390166    15.614314    15.614314    15.649735    28.307560    28.307560    32.975370    43.009790    43.009790    50.093474    52.821481    52.821481 
   150     1.927437  -29.424570    15.613397    15.628720    15.628720    28.281450    28.281450    32.972543    43.049600    43.049600    50.086544    52.787721    52.787721 
