# Temperature [K], Thermal Conductivity (xx, xy, xz, yx, yy, yz, zx, zy, zz) [W/mK]
      0.00         0.0000         0.0000         0.0000         0.0000         0.0000         0.0000         0.0000         0.0000         0.0000
     10.00       381.5483        -0.0297        -0.0297        -0.0297       381.5483        -0.0297        -0.0297        -0.0297       381.5483
     20.00       127.1182        -0.0457        -0.0457        -0.0457       127.1182        -0.0457        -0.0457        -0.0457       127.1182
     30.00        94.8481        -0.0281        -0.0281        -0.0281        94.8481        -0.0281        -0.0281        -0.0281        94.8481
     40.00        75.2524        -0.0175        -0.0175        -0.0175        75.2524        -0.0175        -0.0175        -0.0175        75.2524
     50.00        61.5838        -0.0117        -0.0117        -0.0117        61.5838        -0.0117        -0.0117        -0.0117        61.5838
     60.00        51.7090        -0.0082        -0.0082        -0.0082        51.7090        -0.0082        -0.0082        -0.0082        51.7090
     70.00        44.3018        -0.0060        -0.0060        -0.0060        44.3018        -0.0060        -0.0060        -0.0060        44.3018
     80.00        38.5747        -0.0046        -0.0046        -0.0046        38.5747        -0.0046        -0.0046        -0.0046        38.5747
     90.00        34.0474        -0.0036        -0.0036        -0.0036        34.0474        -0.0036        -0.0036        -0.0036        34.0474
    100.00        30.4059        -0.0030        -0.0030        -0.0030        30.4059        -0.0030        -0.0030        -0.0030        30.4059
    110.00        27.4326        -0.0026        -0.0026        -0.0026        27.4326        -0.0026        -0.0026        -0.0026        27.4326
    120.00        24.9715        -0.0023        -0.0023        -0.0023        24.9715        -0.0023        -0.0023        -0.0023        24.9715
    130.00        22.9079        -0.0020        -0.0020        -0.0020        22.9079        -0.0020        -0.0020        -0.0020        22.9079
    140.00        21.1569        -0.0019        -0.0019        -0.0019        21.1569        -0.0019        -0.0019        -0.0019        21.1569
    150.00        19.6547        -0.0017        -0.0017        -0.0017        19.6547        -0.0017        -0.0017        -0.0017        19.6547
    160.00        18.3531        -0.0016        -0.0016        -0.0016        18.3531        -0.0016        -0.0016        -0.0016        18.3531
    170.00        17.2149        -0.0015        -0.0015        -0.0015        17.2149        -0.0015        -0.0015        -0.0015        17.2149
    180.00        16.2113        -0.0015        -0.0015        -0.0015        16.2113        -0.0015        -0.0015        -0.0015        16.2113
    190.00        15.3200        -0.0014        -0.0014        -0.0014        15.3200        -0.0014        -0.0014        -0.0014        15.3200
    200.00        14.5230        -0.0013        -0.0013        -0.0013        14.5230        -0.0013        -0.0013        -0.0013        14.5230
    210.00        13.8061        -0.0013        -0.0013        -0.0013        13.8061        -0.0013        -0.0013        -0.0013        13.8061
    220.00        13.1577        -0.0012        -0.0012        -0.0012        13.1577        -0.0012        -0.0012        -0.0012        13.1577
    230.00        12.5683        -0.0012        -0.0012        -0.0012        12.5683        -0.0012        -0.0012        -0.0012        12.5683
    240.00        12.0302        -0.0011        -0.0011        -0.0011        12.0302        -0.0011        -0.0011        -0.0011        12.0302
    250.00        11.5368        -0.0011        -0.0011        -0.0011        11.5368        -0.0011        -0.0011        -0.0011        11.5368
    260.00        11.0829        -0.0011        -0.0011        -0.0011        11.0829        -0.0011        -0.0011        -0.0011        11.0829
    270.00        10.6637        -0.0010        -0.0010        -0.0010        10.6637        -0.0010        -0.0010        -0.0010        10.6637
    280.00        10.2754        -0.0010        -0.0010        -0.0010        10.2754        -0.0010        -0.0010        -0.0010        10.2754
    290.00         9.9147        -0.0010        -0.0010        -0.0010         9.9147        -0.0010        -0.0010        -0.0010         9.9147
    300.00         9.5787        -0.0009        -0.0009        -0.0009         9.5787        -0.0009        -0.0009        -0.0009         9.5787
    310.00         9.2650        -0.0009        -0.0009        -0.0009         9.2650        -0.0009        -0.0009        -0.0009         9.2650
    320.00         8.9713        -0.0009        -0.0009        -0.0009         8.9713        -0.0009        -0.0009        -0.0009         8.9713
    330.00         8.6958        -0.0009        -0.0009        -0.0009         8.6958        -0.0009        -0.0009        -0.0009         8.6958
    340.00         8.4368        -0.0008        -0.0008        -0.0008         8.4368        -0.0008        -0.0008        -0.0008         8.4368
    350.00         8.1930        -0.0008        -0.0008        -0.0008         8.1930        -0.0008        -0.0008        -0.0008         8.1930
    360.00         7.9629        -0.0008        -0.0008        -0.0008         7.9629        -0.0008        -0.0008        -0.0008         7.9629
    370.00         7.7455        -0.0008        -0.0008        -0.0008         7.7455        -0.0008        -0.0008        -0.0008         7.7455
    380.00         7.5397        -0.0008        -0.0008        -0.0008         7.5397        -0.0008        -0.0008        -0.0008         7.5397
    390.00         7.3446        -0.0008        -0.0008        -0.0008         7.3446        -0.0008        -0.0008        -0.0008         7.3446
    400.00         7.1594        -0.0007        -0.0007        -0.0007         7.1594        -0.0007        -0.0007        -0.0007         7.1594
    410.00         6.9834        -0.0007        -0.0007        -0.0007         6.9834        -0.0007        -0.0007        -0.0007         6.9834
    420.00         6.8159        -0.0007        -0.0007        -0.0007         6.8159        -0.0007        -0.0007        -0.0007         6.8159
    430.00         6.6562        -0.0007        -0.0007        -0.0007         6.6562        -0.0007        -0.0007        -0.0007         6.6562
    440.00         6.5039        -0.0007        -0.0007        -0.0007         6.5039        -0.0007        -0.0007        -0.0007         6.5039
    450.00         6.3584        -0.0007        -0.0007        -0.0007         6.3584        -0.0007        -0.0007        -0.0007         6.3584
    460.00         6.2193        -0.0006        -0.0006        -0.0006         6.2193        -0.0006        -0.0006        -0.0006         6.2193
    470.00         6.0862        -0.0006        -0.0006        -0.0006         6.0862        -0.0006        -0.0006        -0.0006         6.0862
    480.00         5.9587        -0.0006        -0.0006        -0.0006         5.9587        -0.0006        -0.0006        -0.0006         5.9587
    490.00         5.8364        -0.0006        -0.0006        -0.0006         5.8364        -0.0006        -0.0006        -0.0006         5.8364
    500.00         5.7191        -0.0006        -0.0006        -0.0006         5.7191        -0.0006        -0.0006        -0.0006         5.7191
    510.00         5.6064        -0.0006        -0.0006        -0.0006         5.6064        -0.0006        -0.0006        -0.0006         5.6064
    520.00         5.4981        -0.0006        -0.0006        -0.0006         5.4981        -0.0006        -0.0006        -0.0006         5.4981
    530.00         5.3939        -0.0006        -0.0006        -0.0006         5.3939        -0.0006        -0.0006        -0.0006         5.3939
    540.00         5.2935        -0.0006        -0.0006        -0.0006         5.2935        -0.0006        -0.0006        -0.0006         5.2935
    550.00         5.1969        -0.0005        -0.0005        -0.0005         5.1969        -0.0005        -0.0005        -0.0005         5.1969
    560.00         5.1037        -0.0005        -0.0005        -0.0005         5.1037        -0.0005        -0.0005        -0.0005         5.1037
    570.00         5.0138        -0.0005        -0.0005        -0.0005         5.0138        -0.0005        -0.0005        -0.0005         5.0138
    580.00         4.9271        -0.0005        -0.0005        -0.0005         4.9271        -0.0005        -0.0005        -0.0005         4.9271
    590.00         4.8433        -0.0005        -0.0005        -0.0005         4.8433        -0.0005        -0.0005        -0.0005         4.8433
    600.00         4.7623        -0.0005        -0.0005        -0.0005         4.7623        -0.0005        -0.0005        -0.0005         4.7623
    610.00         4.6839        -0.0005        -0.0005        -0.0005         4.6839        -0.0005        -0.0005        -0.0005         4.6839
    620.00         4.6081        -0.0005        -0.0005        -0.0005         4.6081        -0.0005        -0.0005        -0.0005         4.6081
    630.00         4.5348        -0.0005        -0.0005        -0.0005         4.5348        -0.0005        -0.0005        -0.0005         4.5348
    640.00         4.4637        -0.0005        -0.0005        -0.0005         4.4637        -0.0005        -0.0005        -0.0005         4.4637
    650.00         4.3948        -0.0005        -0.0005        -0.0005         4.3948        -0.0005        -0.0005        -0.0005         4.3948
    660.00         4.3281        -0.0005        -0.0005        -0.0005         4.3281        -0.0005        -0.0005        -0.0005         4.3281
    670.00         4.2633        -0.0005        -0.0005        -0.0005         4.2633        -0.0005        -0.0005        -0.0005         4.2633
    680.00         4.2004        -0.0004        -0.0004        -0.0004         4.2004        -0.0004        -0.0004        -0.0004         4.2004
    690.00         4.1394        -0.0004        -0.0004        -0.0004         4.1394        -0.0004        -0.0004        -0.0004         4.1394
    700.00         4.0801        -0.0004        -0.0004        -0.0004         4.0801        -0.0004        -0.0004        -0.0004         4.0801
    710.00         4.0225        -0.0004        -0.0004        -0.0004         4.0225        -0.0004        -0.0004        -0.0004         4.0225
    720.00         3.9665        -0.0004        -0.0004        -0.0004         3.9665        -0.0004        -0.0004        -0.0004         3.9665
    730.00         3.9121        -0.0004        -0.0004        -0.0004         3.9121        -0.0004        -0.0004        -0.0004         3.9121
    740.00         3.8591        -0.0004        -0.0004        -0.0004         3.8591        -0.0004        -0.0004        -0.0004         3.8591
    750.00         3.8075        -0.0004        -0.0004        -0.0004         3.8075        -0.0004        -0.0004        -0.0004         3.8075
    760.00         3.7573        -0.0004        -0.0004        -0.0004         3.7573        -0.0004        -0.0004        -0.0004         3.7573
    770.00         3.7084        -0.0004        -0.0004        -0.0004         3.7084        -0.0004        -0.0004        -0.0004         3.7084
    780.00         3.6608        -0.0004        -0.0004        -0.0004         3.6608        -0.0004        -0.0004        -0.0004         3.6608
    790.00         3.6143        -0.0004        -0.0004        -0.0004         3.6143        -0.0004        -0.0004        -0.0004         3.6143
    800.00         3.5691        -0.0004        -0.0004        -0.0004         3.5691        -0.0004        -0.0004        -0.0004         3.5691
    810.00         3.5249        -0.0004        -0.0004        -0.0004         3.5249        -0.0004        -0.0004        -0.0004         3.5249
    820.00         3.4819        -0.0004        -0.0004        -0.0004         3.4819        -0.0004        -0.0004        -0.0004         3.4819
    830.00         3.4399        -0.0004        -0.0004        -0.0004         3.4399        -0.0004        -0.0004        -0.0004         3.4399
    840.00         3.3988        -0.0004        -0.0004        -0.0004         3.3988        -0.0004        -0.0004        -0.0004         3.3988
    850.00         3.3588        -0.0004        -0.0004        -0.0004         3.3588        -0.0004        -0.0004        -0.0004         3.3588
    860.00         3.3197        -0.0004        -0.0004        -0.0004         3.3197        -0.0004        -0.0004        -0.0004         3.3197
    870.00         3.2815        -0.0004        -0.0004        -0.0004         3.2815        -0.0004        -0.0004        -0.0004         3.2815
    880.00         3.2441        -0.0003        -0.0003        -0.0003         3.2441        -0.0003        -0.0003        -0.0003         3.2441
    890.00         3.2076        -0.0003        -0.0003        -0.0003         3.2076        -0.0003        -0.0003        -0.0003         3.2076
    900.00         3.1719        -0.0003        -0.0003        -0.0003         3.1719        -0.0003        -0.0003        -0.0003         3.1719
    910.00         3.1370        -0.0003        -0.0003        -0.0003         3.1370        -0.0003        -0.0003        -0.0003         3.1370
    920.00         3.1029        -0.0003        -0.0003        -0.0003         3.1029        -0.0003        -0.0003        -0.0003         3.1029
    930.00         3.0695        -0.0003        -0.0003        -0.0003         3.0695        -0.0003        -0.0003        -0.0003         3.0695
    940.00         3.0368        -0.0003        -0.0003        -0.0003         3.0368        -0.0003        -0.0003        -0.0003         3.0368
    950.00         3.0047        -0.0003        -0.0003        -0.0003         3.0047        -0.0003        -0.0003        -0.0003         3.0047
    960.00         2.9734        -0.0003        -0.0003        -0.0003         2.9734        -0.0003        -0.0003        -0.0003         2.9734
    970.00         2.9427        -0.0003        -0.0003        -0.0003         2.9427        -0.0003        -0.0003        -0.0003         2.9427
    980.00         2.9127        -0.0003        -0.0003        -0.0003         2.9127        -0.0003        -0.0003        -0.0003         2.9127
    990.00         2.8832        -0.0003        -0.0003        -0.0003         2.8832        -0.0003        -0.0003        -0.0003         2.8832
   1000.00         2.8543        -0.0003        -0.0003        -0.0003         2.8543        -0.0003        -0.0003        -0.0003         2.8543
