# Temperature [K], Thermal Conductivity (xx, xy, xz, yx, yy, yz, zx, zy, zz) [W/mK]
      0.00         0.0000         0.0000         0.0000         0.0000         0.0000         0.0000         0.0000         0.0000         0.0000
     10.00      2254.7623         0.0001         0.0001         0.0001      2254.7623         0.0001         0.0001         0.0001      2254.7623
     20.00       385.5349        -0.0001        -0.0001        -0.0001       385.5349        -0.0001        -0.0001        -0.0001       385.5349
     30.00       185.3555        -0.0039        -0.0039        -0.0039       185.3555        -0.0039        -0.0039        -0.0039       185.3555
     40.00       181.8490        -0.0135        -0.0135        -0.0135       181.8490        -0.0135        -0.0135        -0.0135       181.8490
     50.00       187.7053        -0.0243        -0.0243        -0.0243       187.7053        -0.0243        -0.0243        -0.0243       187.7053
     60.00       186.1006        -0.0323        -0.0323        -0.0323       186.1006        -0.0323        -0.0323        -0.0323       186.1006
     70.00       179.4181        -0.0370        -0.0370        -0.0370       179.4181        -0.0370        -0.0370        -0.0370       179.4181
     80.00       170.4233        -0.0391        -0.0391        -0.0391       170.4233        -0.0391        -0.0391        -0.0391       170.4233
     90.00       160.7311        -0.0396        -0.0396        -0.0396       160.7311        -0.0396        -0.0396        -0.0396       160.7311
    100.00       151.1626        -0.0392        -0.0392        -0.0392       151.1626        -0.0392        -0.0392        -0.0392       151.1626
    110.00       142.0993        -0.0382        -0.0382        -0.0382       142.0993        -0.0382        -0.0382        -0.0382       142.0993
    120.00       133.6931        -0.0369        -0.0369        -0.0369       133.6931        -0.0369        -0.0369        -0.0369       133.6931
    130.00       125.9796        -0.0355        -0.0355        -0.0355       125.9796        -0.0355        -0.0355        -0.0355       125.9796
    140.00       118.9378        -0.0340        -0.0340        -0.0340       118.9378        -0.0340        -0.0340        -0.0340       118.9378
    150.00       112.5215        -0.0326        -0.0326        -0.0326       112.5215        -0.0326        -0.0326        -0.0326       112.5215
    160.00       106.6753        -0.0312        -0.0312        -0.0312       106.6753        -0.0312        -0.0312        -0.0312       106.6753
    170.00       101.3426        -0.0299        -0.0299        -0.0299       101.3426        -0.0299        -0.0299        -0.0299       101.3426
    180.00        96.4697        -0.0286        -0.0286        -0.0286        96.4697        -0.0286        -0.0286        -0.0286        96.4697
    190.00        92.0074        -0.0275        -0.0275        -0.0275        92.0074        -0.0275        -0.0275        -0.0275        92.0074
    200.00        87.9114        -0.0264        -0.0264        -0.0264        87.9114        -0.0264        -0.0264        -0.0264        87.9114
    210.00        84.1425        -0.0254        -0.0254        -0.0254        84.1425        -0.0254        -0.0254        -0.0254        84.1425
    220.00        80.6660        -0.0244        -0.0244        -0.0244        80.6660        -0.0244        -0.0244        -0.0244        80.6660
    230.00        77.4515        -0.0235        -0.0235        -0.0235        77.4515        -0.0235        -0.0235        -0.0235        77.4515
    240.00        74.4720        -0.0227        -0.0227        -0.0227        74.4720        -0.0227        -0.0227        -0.0227        74.4720
    250.00        71.7042        -0.0219        -0.0219        -0.0219        71.7042        -0.0219        -0.0219        -0.0219        71.7042
    260.00        69.1271        -0.0211        -0.0211        -0.0211        69.1271        -0.0211        -0.0211        -0.0211        69.1271
    270.00        66.7227        -0.0204        -0.0204        -0.0204        66.7227        -0.0204        -0.0204        -0.0204        66.7227
    280.00        64.4747        -0.0198        -0.0198        -0.0198        64.4747        -0.0198        -0.0198        -0.0198        64.4747
    290.00        62.3690        -0.0192        -0.0192        -0.0192        62.3690        -0.0192        -0.0192        -0.0192        62.3690
    300.00        60.3927        -0.0186        -0.0186        -0.0186        60.3927        -0.0186        -0.0186        -0.0186        60.3927
    310.00        58.5348        -0.0180        -0.0180        -0.0180        58.5348        -0.0180        -0.0180        -0.0180        58.5348
    320.00        56.7852        -0.0175        -0.0175        -0.0175        56.7852        -0.0175        -0.0175        -0.0175        56.7852
    330.00        55.1348        -0.0170        -0.0170        -0.0170        55.1348        -0.0170        -0.0170        -0.0170        55.1348
    340.00        53.5757        -0.0165        -0.0165        -0.0165        53.5757        -0.0165        -0.0165        -0.0165        53.5757
    350.00        52.1007        -0.0161        -0.0161        -0.0161        52.1007        -0.0161        -0.0161        -0.0161        52.1007
    360.00        50.7033        -0.0157        -0.0157        -0.0157        50.7033        -0.0157        -0.0157        -0.0157        50.7033
    370.00        49.3776        -0.0153        -0.0153        -0.0153        49.3776        -0.0153        -0.0153        -0.0153        49.3776
    380.00        48.1183        -0.0149        -0.0149        -0.0149        48.1183        -0.0149        -0.0149        -0.0149        48.1183
    390.00        46.9207        -0.0145        -0.0145        -0.0145        46.9207        -0.0145        -0.0145        -0.0145        46.9207
    400.00        45.7805        -0.0142        -0.0142        -0.0142        45.7805        -0.0142        -0.0142        -0.0142        45.7805
    410.00        44.6935        -0.0139        -0.0139        -0.0139        44.6935        -0.0139        -0.0139        -0.0139        44.6935
    420.00        43.6564        -0.0135        -0.0135        -0.0135        43.6564        -0.0135        -0.0135        -0.0135        43.6564
    430.00        42.6656        -0.0132        -0.0132        -0.0132        42.6656        -0.0132        -0.0132        -0.0132        42.6656
    440.00        41.7183        -0.0130        -0.0130        -0.0130        41.7183        -0.0130        -0.0130        -0.0130        41.7183
    450.00        40.8117        -0.0127        -0.0127        -0.0127        40.8117        -0.0127        -0.0127        -0.0127        40.8117
    460.00        39.9432        -0.0124        -0.0124        -0.0124        39.9432        -0.0124        -0.0124        -0.0124        39.9432
    470.00        39.1106        -0.0122        -0.0122        -0.0122        39.1106        -0.0122        -0.0122        -0.0122        39.1106
    480.00        38.3116        -0.0119        -0.0119        -0.0119        38.3116        -0.0119        -0.0119        -0.0119        38.3116
    490.00        37.5443        -0.0117        -0.0117        -0.0117        37.5443        -0.0117        -0.0117        -0.0117        37.5443
    500.00        36.8068        -0.0115        -0.0115        -0.0115        36.8068        -0.0115        -0.0115        -0.0115        36.8068
    510.00        36.0975        -0.0112        -0.0112        -0.0112        36.0975        -0.0112        -0.0112        -0.0112        36.0975
    520.00        35.4148        -0.0110        -0.0110        -0.0110        35.4148        -0.0110        -0.0110        -0.0110        35.4148
    530.00        34.7573        -0.0108        -0.0108        -0.0108        34.7573        -0.0108        -0.0108        -0.0108        34.7573
    540.00        34.1235        -0.0106        -0.0106        -0.0106        34.1235        -0.0106        -0.0106        -0.0106        34.1235
    550.00        33.5122        -0.0104        -0.0104        -0.0104        33.5122        -0.0104        -0.0104        -0.0104        33.5122
    560.00        32.9223        -0.0103        -0.0103        -0.0103        32.9223        -0.0103        -0.0103        -0.0103        32.9223
    570.00        32.3527        -0.0101        -0.0101        -0.0101        32.3527        -0.0101        -0.0101        -0.0101        32.3527
    580.00        31.8023        -0.0099        -0.0099        -0.0099        31.8023        -0.0099        -0.0099        -0.0099        31.8023
    590.00        31.2702        -0.0097        -0.0097        -0.0097        31.2702        -0.0097        -0.0097        -0.0097        31.2702
    600.00        30.7555        -0.0096        -0.0096        -0.0096        30.7555        -0.0096        -0.0096        -0.0096        30.7555
    610.00        30.2574        -0.0094        -0.0094        -0.0094        30.2574        -0.0094        -0.0094        -0.0094        30.2574
    620.00        29.7750        -0.0093        -0.0093        -0.0093        29.7750        -0.0093        -0.0093        -0.0093        29.7750
    630.00        29.3078        -0.0091        -0.0091        -0.0091        29.3078        -0.0091        -0.0091        -0.0091        29.3078
    640.00        28.8548        -0.0090        -0.0090        -0.0090        28.8548        -0.0090        -0.0090        -0.0090        28.8548
    650.00        28.4156        -0.0089        -0.0089        -0.0089        28.4156        -0.0089        -0.0089        -0.0089        28.4156
    660.00        27.9895        -0.0087        -0.0087        -0.0087        27.9895        -0.0087        -0.0087        -0.0087        27.9895
    670.00        27.5759        -0.0086        -0.0086        -0.0086        27.5759        -0.0086        -0.0086        -0.0086        27.5759
    680.00        27.1743        -0.0085        -0.0085        -0.0085        27.1743        -0.0085        -0.0085        -0.0085        27.1743
    690.00        26.7842        -0.0084        -0.0084        -0.0084        26.7842        -0.0084        -0.0084        -0.0084        26.7842
    700.00        26.4050        -0.0082        -0.0082        -0.0082        26.4050        -0.0082        -0.0082        -0.0082        26.4050
    710.00        26.0364        -0.0081        -0.0081        -0.0081        26.0364        -0.0081        -0.0081        -0.0081        26.0364
    720.00        25.6779        -0.0080        -0.0080        -0.0080        25.6779        -0.0080        -0.0080        -0.0080        25.6779
    730.00        25.3291        -0.0079        -0.0079        -0.0079        25.3291        -0.0079        -0.0079        -0.0079        25.3291
    740.00        24.9896        -0.0078        -0.0078        -0.0078        24.9896        -0.0078        -0.0078        -0.0078        24.9896
    750.00        24.6591        -0.0077        -0.0077        -0.0077        24.6591        -0.0077        -0.0077        -0.0077        24.6591
    760.00        24.3371        -0.0076        -0.0076        -0.0076        24.3371        -0.0076        -0.0076        -0.0076        24.3371
    770.00        24.0235        -0.0075        -0.0075        -0.0075        24.0235        -0.0075        -0.0075        -0.0075        24.0235
    780.00        23.7177        -0.0074        -0.0074        -0.0074        23.7177        -0.0074        -0.0074        -0.0074        23.7177
    790.00        23.4197        -0.0073        -0.0073        -0.0073        23.4197        -0.0073        -0.0073        -0.0073        23.4197
    800.00        23.1290        -0.0072        -0.0072        -0.0072        23.1290        -0.0072        -0.0072        -0.0072        23.1290
    810.00        22.8454        -0.0071        -0.0071        -0.0071        22.8454        -0.0071        -0.0071        -0.0071        22.8454
    820.00        22.5686        -0.0071        -0.0071        -0.0071        22.5686        -0.0071        -0.0071        -0.0071        22.5686
    830.00        22.2985        -0.0070        -0.0070        -0.0070        22.2985        -0.0070        -0.0070        -0.0070        22.2985
    840.00        22.0347        -0.0069        -0.0069        -0.0069        22.0347        -0.0069        -0.0069        -0.0069        22.0347
    850.00        21.7771        -0.0068        -0.0068        -0.0068        21.7771        -0.0068        -0.0068        -0.0068        21.7771
    860.00        21.5254        -0.0067        -0.0067        -0.0067        21.5254        -0.0067        -0.0067        -0.0067        21.5254
    870.00        21.2794        -0.0067        -0.0067        -0.0067        21.2794        -0.0067        -0.0067        -0.0067        21.2794
    880.00        21.0390        -0.0066        -0.0066        -0.0066        21.0390        -0.0066        -0.0066        -0.0066        21.0390
    890.00        20.8039        -0.0065        -0.0065        -0.0065        20.8039        -0.0065        -0.0065        -0.0065        20.8039
    900.00        20.5741        -0.0064        -0.0064        -0.0064        20.5741        -0.0064        -0.0064        -0.0064        20.5741
    910.00        20.3492        -0.0064        -0.0064        -0.0064        20.3492        -0.0064        -0.0064        -0.0064        20.3492
    920.00        20.1292        -0.0063        -0.0063        -0.0063        20.1292        -0.0063        -0.0063        -0.0063        20.1292
    930.00        19.9139        -0.0062        -0.0062        -0.0062        19.9139        -0.0062        -0.0062        -0.0062        19.9139
    940.00        19.7031        -0.0062        -0.0062        -0.0062        19.7031        -0.0062        -0.0062        -0.0062        19.7031
    950.00        19.4967        -0.0061        -0.0061        -0.0061        19.4967        -0.0061        -0.0061        -0.0061        19.4967
    960.00        19.2946        -0.0060        -0.0060        -0.0060        19.2946        -0.0060        -0.0060        -0.0060        19.2946
    970.00        19.0966        -0.0060        -0.0060        -0.0060        19.0966        -0.0060        -0.0060        -0.0060        19.0966
    980.00        18.9027        -0.0059        -0.0059        -0.0059        18.9027        -0.0059        -0.0059        -0.0059        18.9027
    990.00        18.7126        -0.0059        -0.0059        -0.0059        18.7126        -0.0059        -0.0059        -0.0059        18.7126
   1000.00        18.5263        -0.0058        -0.0058        -0.0058        18.5263        -0.0058        -0.0058        -0.0058        18.5263
