# Temperature [K], Thermal Conductivity (xx, xy, xz, yx, yy, yz, zx, zy, zz) [W/mK]
      0.00         0.0000         0.0000         0.0000         0.0000         0.0000         0.0000         0.0000         0.0000         0.0000
     10.00      2226.3931         0.0001         0.0001         0.0001      2226.3931         0.0001         0.0001         0.0001      2226.3931
     20.00       383.6897        -0.0001        -0.0001        -0.0001       383.6897        -0.0001        -0.0001        -0.0001       383.6897
     30.00       185.7971        -0.0038        -0.0038        -0.0038       185.7971        -0.0038        -0.0038        -0.0038       185.7971
     40.00       182.4882        -0.0133        -0.0133        -0.0133       182.4882        -0.0133        -0.0133        -0.0133       182.4882
     50.00       188.2497        -0.0240        -0.0240        -0.0240       188.2497        -0.0240        -0.0240        -0.0240       188.2497
     60.00       186.5199        -0.0319        -0.0319        -0.0319       186.5199        -0.0319        -0.0319        -0.0319       186.5199
     70.00       179.7352        -0.0366        -0.0366        -0.0366       179.7352        -0.0366        -0.0366        -0.0366       179.7352
     80.00       170.6648        -0.0387        -0.0387        -0.0387       170.6648        -0.0387        -0.0387        -0.0387       170.6648
     90.00       160.9177        -0.0392        -0.0392        -0.0392       160.9177        -0.0392        -0.0392        -0.0392       160.9177
    100.00       151.3093        -0.0388        -0.0388        -0.0388       151.3093        -0.0388        -0.0388        -0.0388       151.3093
    110.00       142.2166        -0.0378        -0.0378        -0.0378       142.2166        -0.0378        -0.0378        -0.0378       142.2166
    120.00       133.7885        -0.0365        -0.0365        -0.0365       133.7885        -0.0365        -0.0365        -0.0365       133.7885
    130.00       126.0583        -0.0351        -0.0351        -0.0351       126.0583        -0.0351        -0.0351        -0.0351       126.0583
    140.00       119.0036        -0.0336        -0.0336        -0.0336       119.0036        -0.0336        -0.0336        -0.0336       119.0036
    150.00       112.5773        -0.0322        -0.0322        -0.0322       112.5773        -0.0322        -0.0322        -0.0322       112.5773
    160.00       106.7231        -0.0309        -0.0309        -0.0309       106.7231        -0.0309        -0.0309        -0.0309       106.7231
    170.00       101.3840        -0.0296        -0.0296        -0.0296       101.3840        -0.0296        -0.0296        -0.0296       101.3840
    180.00        96.5059        -0.0283        -0.0283        -0.0283        96.5059        -0.0283        -0.0283        -0.0283        96.5059
    190.00        92.0393        -0.0272        -0.0272        -0.0272        92.0393        -0.0272        -0.0272        -0.0272        92.0393
    200.00        87.9398        -0.0261        -0.0261        -0.0261        87.9398        -0.0261        -0.0261        -0.0261        87.9398
    210.00        84.1679        -0.0251        -0.0251        -0.0251        84.1679        -0.0251        -0.0251        -0.0251        84.1679
    220.00        80.6889        -0.0241        -0.0241        -0.0241        80.6889        -0.0241        -0.0241        -0.0241        80.6889
    230.00        77.4722        -0.0232        -0.0232        -0.0232        77.4722        -0.0232        -0.0232        -0.0232        77.4722
    240.00        74.4909        -0.0224        -0.0224        -0.0224        74.4909        -0.0224        -0.0224        -0.0224        74.4909
    250.00        71.7214        -0.0216        -0.0216        -0.0216        71.7214        -0.0216        -0.0216        -0.0216        71.7214
    260.00        69.1430        -0.0209        -0.0209        -0.0209        69.1430        -0.0209        -0.0209        -0.0209        69.1430
    270.00        66.7374        -0.0202        -0.0202        -0.0202        66.7374        -0.0202        -0.0202        -0.0202        66.7374
    280.00        64.4883        -0.0195        -0.0195        -0.0195        64.4883        -0.0195        -0.0195        -0.0195        64.4883
    290.00        62.3816        -0.0189        -0.0189        -0.0189        62.3816        -0.0189        -0.0189        -0.0189        62.3816
    300.00        60.4046        -0.0184        -0.0184        -0.0184        60.4046        -0.0184        -0.0184        -0.0184        60.4046
    310.00        58.5459        -0.0178        -0.0178        -0.0178        58.5459        -0.0178        -0.0178        -0.0178        58.5459
    320.00        56.7956        -0.0173        -0.0173        -0.0173        56.7956        -0.0173        -0.0173        -0.0173        56.7956
    330.00        55.1446        -0.0168        -0.0168        -0.0168        55.1446        -0.0168        -0.0168        -0.0168        55.1446
    340.00        53.5850        -0.0164        -0.0164        -0.0164        53.5850        -0.0164        -0.0164        -0.0164        53.5850
    350.00        52.1095        -0.0159        -0.0159        -0.0159        52.1095        -0.0159        -0.0159        -0.0159        52.1095
    360.00        50.7116        -0.0155        -0.0155        -0.0155        50.7116        -0.0155        -0.0155        -0.0155        50.7116
    370.00        49.3855        -0.0151        -0.0151        -0.0151        49.3855        -0.0151        -0.0151        -0.0151        49.3855
    380.00        48.1259        -0.0147        -0.0147        -0.0147        48.1259        -0.0147        -0.0147        -0.0147        48.1259
    390.00        46.9280        -0.0144        -0.0144        -0.0144        46.9280        -0.0144        -0.0144        -0.0144        46.9280
    400.00        45.7874        -0.0140        -0.0140        -0.0140        45.7874        -0.0140        -0.0140        -0.0140        45.7874
    410.00        44.7002        -0.0137        -0.0137        -0.0137        44.7002        -0.0137        -0.0137        -0.0137        44.7002
    420.00        43.6627        -0.0134        -0.0134        -0.0134        43.6627        -0.0134        -0.0134        -0.0134        43.6627
    430.00        42.6717        -0.0131        -0.0131        -0.0131        42.6717        -0.0131        -0.0131        -0.0131        42.6717
    440.00        41.7242        -0.0128        -0.0128        -0.0128        41.7242        -0.0128        -0.0128        -0.0128        41.7242
    450.00        40.8174        -0.0125        -0.0125        -0.0125        40.8174        -0.0125        -0.0125        -0.0125        40.8174
    460.00        39.9487        -0.0123        -0.0123        -0.0123        39.9487        -0.0123        -0.0123        -0.0123        39.9487
    470.00        39.1159        -0.0120        -0.0120        -0.0120        39.1159        -0.0120        -0.0120        -0.0120        39.1159
    480.00        38.3167        -0.0118        -0.0118        -0.0118        38.3167        -0.0118        -0.0118        -0.0118        38.3167
    490.00        37.5492        -0.0115        -0.0115        -0.0115        37.5492        -0.0115        -0.0115        -0.0115        37.5492
    500.00        36.8116        -0.0113        -0.0113        -0.0113        36.8116        -0.0113        -0.0113        -0.0113        36.8116
    510.00        36.1022        -0.0111        -0.0111        -0.0111        36.1022        -0.0111        -0.0111        -0.0111        36.1022
    520.00        35.4194        -0.0109        -0.0109        -0.0109        35.4194        -0.0109        -0.0109        -0.0109        35.4194
    530.00        34.7617        -0.0107        -0.0107        -0.0107        34.7617        -0.0107        -0.0107        -0.0107        34.7617
    540.00        34.1278        -0.0105        -0.0105        -0.0105        34.1278        -0.0105        -0.0105        -0.0105        34.1278
    550.00        33.5164        -0.0103        -0.0103        -0.0103        33.5164        -0.0103        -0.0103        -0.0103        33.5164
    560.00        32.9264        -0.0101        -0.0101        -0.0101        32.9264        -0.0101        -0.0101        -0.0101        32.9264
    570.00        32.3566        -0.0100        -0.0100        -0.0100        32.3566        -0.0100        -0.0100        -0.0100        32.3566
    580.00        31.8062        -0.0098        -0.0098        -0.0098        31.8062        -0.0098        -0.0098        -0.0098        31.8062
    590.00        31.2740        -0.0096        -0.0096        -0.0096        31.2740        -0.0096        -0.0096        -0.0096        31.2740
    600.00        30.7592        -0.0095        -0.0095        -0.0095        30.7592        -0.0095        -0.0095        -0.0095        30.7592
    610.00        30.2610        -0.0093        -0.0093        -0.0093        30.2610        -0.0093        -0.0093        -0.0093        30.2610
    620.00        29.7786        -0.0092        -0.0092        -0.0092        29.7786        -0.0092        -0.0092        -0.0092        29.7786
    630.00        29.3112        -0.0090        -0.0090        -0.0090        29.3112        -0.0090        -0.0090        -0.0090        29.3112
    640.00        28.8582        -0.0089        -0.0089        -0.0089        28.8582        -0.0089        -0.0089        -0.0089        28.8582
    650.00        28.4189        -0.0088        -0.0088        -0.0088        28.4189        -0.0088        -0.0088        -0.0088        28.4189
    660.00        27.9927        -0.0086        -0.0086        -0.0086        27.9927        -0.0086        -0.0086        -0.0086        27.9927
    670.00        27.5790        -0.0085        -0.0085        -0.0085        27.5790        -0.0085        -0.0085        -0.0085        27.5790
    680.00        27.1774        -0.0084        -0.0084        -0.0084        27.1774        -0.0084        -0.0084        -0.0084        27.1774
    690.00        26.7872        -0.0083        -0.0083        -0.0083        26.7872        -0.0083        -0.0083        -0.0083        26.7872
    700.00        26.4080        -0.0081        -0.0081        -0.0081        26.4080        -0.0081        -0.0081        -0.0081        26.4080
    710.00        26.0393        -0.0080        -0.0080        -0.0080        26.0393        -0.0080        -0.0080        -0.0080        26.0393
    720.00        25.6808        -0.0079        -0.0079        -0.0079        25.6808        -0.0079        -0.0079        -0.0079        25.6808
    730.00        25.3319        -0.0078        -0.0078        -0.0078        25.3319        -0.0078        -0.0078        -0.0078        25.3319
    740.00        24.9924        -0.0077        -0.0077        -0.0077        24.9924        -0.0077        -0.0077        -0.0077        24.9924
    750.00        24.6618        -0.0076        -0.0076        -0.0076        24.6618        -0.0076        -0.0076        -0.0076        24.6618
    760.00        24.3398        -0.0075        -0.0075        -0.0075        24.3398        -0.0075        -0.0075        -0.0075        24.3398
    770.00        24.0261        -0.0074        -0.0074        -0.0074        24.0261        -0.0074        -0.0074        -0.0074        24.0261
    780.00        23.7203        -0.0073        -0.0073        -0.0073        23.7203        -0.0073        -0.0073        -0.0073        23.7203
    790.00        23.4222        -0.0072        -0.0072        -0.0072        23.4222        -0.0072        -0.0072        -0.0072        23.4222
    800.00        23.1315        -0.0071        -0.0071        -0.0071        23.1315        -0.0071        -0.0071        -0.0071        23.1315
    810.00        22.8478        -0.0071        -0.0071        -0.0071        22.8478        -0.0071        -0.0071        -0.0071        22.8478
    820.00        22.5710        -0.0070        -0.0070        -0.0070        22.5710        -0.0070        -0.0070        -0.0070        22.5710
    830.00        22.3009        -0.0069        -0.0069        -0.0069        22.3009        -0.0069        -0.0069        -0.0069        22.3009
    840.00        22.0370        -0.0068        -0.0068        -0.0068        22.0370        -0.0068        -0.0068        -0.0068        22.0370
    850.00        21.7794        -0.0067        -0.0067        -0.0067        21.7794        -0.0067        -0.0067        -0.0067        21.7794
    860.00        21.5277        -0.0067        -0.0067        -0.0067        21.5277        -0.0067        -0.0067        -0.0067        21.5277
    870.00        21.2817        -0.0066        -0.0066        -0.0066        21.2817        -0.0066        -0.0066        -0.0066        21.2817
    880.00        21.0412        -0.0065        -0.0065        -0.0065        21.0412        -0.0065        -0.0065        -0.0065        21.0412
    890.00        20.8061        -0.0064        -0.0064        -0.0064        20.8061        -0.0064        -0.0064        -0.0064        20.8061
    900.00        20.5762        -0.0064        -0.0064        -0.0064        20.5762        -0.0064        -0.0064        -0.0064        20.5762
    910.00        20.3513        -0.0063        -0.0063        -0.0063        20.3513        -0.0063        -0.0063        -0.0063        20.3513
    920.00        20.1313        -0.0062        -0.0062        -0.0062        20.1313        -0.0062        -0.0062        -0.0062        20.1313
    930.00        19.9159        -0.0062        -0.0062        -0.0062        19.9159        -0.0062        -0.0062        -0.0062        19.9159
    940.00        19.7051        -0.0061        -0.0061        -0.0061        19.7051        -0.0061        -0.0061        -0.0061        19.7051
    950.00        19.4987        -0.0060        -0.0060        -0.0060        19.4987        -0.0060        -0.0060        -0.0060        19.4987
    960.00        19.2966        -0.0060        -0.0060        -0.0060        19.2966        -0.0060        -0.0060        -0.0060        19.2966
    970.00        19.0986        -0.0059        -0.0059        -0.0059        19.0986        -0.0059        -0.0059        -0.0059        19.0986
    980.00        18.9046        -0.0058        -0.0058        -0.0058        18.9046        -0.0058        -0.0058        -0.0058        18.9046
    990.00        18.7145        -0.0058        -0.0058        -0.0058        18.7145        -0.0058        -0.0058        -0.0058        18.7145
   1000.00        18.5282        -0.0057        -0.0057        -0.0057        18.5282        -0.0057        -0.0057        -0.0057        18.5282
