# Temperature [K], Thermal Conductivity (xx, xy, xz, yx, yy, yz, zx, zy, zz) [W/mK]
      0.00         0.0000         0.0000         0.0000         0.0000         0.0000         0.0000         0.0000         0.0000         0.0000
     10.00        59.7623         0.0322         0.0322         0.0322        59.7623         0.0322         0.0322         0.0322        59.7623
     20.00      1481.5030      1398.9431      1398.9431      1398.9431      1481.5030      1398.9431      1398.9431      1398.9431      1481.5030
     30.00     33632.0356     33573.9483     33573.9483     33573.9483     33632.0356     33573.9483     33573.9483     33573.9483     33632.0356
     40.00    133441.9631    133398.5364    133398.5364    133398.5364    133441.9631    133398.5364    133398.5364    133398.5364    133441.9631
     50.00    267975.3859    267938.0483    267938.0483    267938.0483    267975.3859    267938.0483    267938.0483    267938.0483    267975.3859
     60.00    391601.4785    391567.2664    391567.2664    391567.2664    391601.4785    391567.2664    391567.2664    391567.2664    391601.4785
     70.00    484407.7728    484375.7258    484375.7258    484375.7258    484407.7728    484375.7258    484375.7258    484375.7258    484407.7728
     80.00    545314.0790    545283.8608    545283.8608    545283.8608    545314.0790    545283.8608    545283.8608    545283.8608    545314.0790
     90.00    580340.0984    580311.5548    580311.5548    580311.5548    580340.0984    580311.5548    580311.5548    580311.5548    580340.0984
    100.00    596496.3262    596469.3493    596469.3493    596469.3493    596496.3262    596469.3493    596469.3493    596469.3493    596496.3262
    110.00    599671.4786    599645.9680    599645.9680    599645.9680    599671.4786    599645.9680    599645.9680    599645.9680    599671.4786
    120.00    594261.9604    594237.8161    594237.8161    594237.8161    594261.9604    594237.8161    594237.8161    594237.8161    594261.9604
    130.00    583375.6221    583352.7448    583352.7448    583352.7448    583375.6221    583352.7448    583352.7448    583352.7448    583375.6221
    140.00    569147.8999    569126.1937    569126.1937    569126.1937    569147.8999    569126.1937    569126.1937    569126.1937    569147.8999
    150.00    553021.8796    553001.2537    553001.2537    553001.2537    553021.8796    553001.2537    553001.2537    553001.2537    553021.8796
    160.00    535961.1840    535941.5536    535941.5536    535941.5536    535961.1840    535941.5536    535941.5536    535941.5536    535961.1840
    170.00    518601.8372    518583.1246    518583.1246    518583.1246    518601.8372    518583.1246    518583.1246    518583.1246    518601.8372
    180.00    501357.4602    501339.5940    501339.5940    501339.5940    501357.4602    501339.5940    501339.5940    501339.5940    501357.4602
    190.00    484491.1615    484474.0768    484474.0768    484474.0768    484491.1615    484474.0768    484474.0768    484474.0768    484491.1615
    200.00    468164.4087    468148.0467    468148.0467    468148.0467    468164.4087    468148.0468    468148.0467    468148.0468    468164.4087
    210.00    452470.2156    452454.5229    452454.5229    452454.5229    452470.2156    452454.5229    452454.5229    452454.5229    452470.2156
    220.00    437455.7032    437440.6316    437440.6316    437440.6316    437455.7032    437440.6316    437440.6316    437440.6316    437455.7032
    230.00    423137.4672    423122.9728    423122.9728    423122.9728    423137.4672    423122.9728    423122.9728    423122.9728    423137.4672
    240.00    409512.0633    409498.1063    409498.1063    409498.1063    409512.0633    409498.1063    409498.1063    409498.1063    409512.0633
    250.00    396563.1711    396549.7155    396549.7155    396549.7155    396563.1711    396549.7155    396549.7155    396549.7155    396563.1711
    260.00    384266.4868    384253.4997    384253.4997    384253.4997    384266.4868    384253.4997    384253.4997    384253.4997    384266.4868
    270.00    372593.0584    372580.5099    372580.5099    372580.5099    372593.0584    372580.5099    372580.5099    372580.5099    372593.0584
    280.00    361511.5483    361499.4110    361499.4110    361499.4110    361511.5483    361499.4110    361499.4110    361499.4110    361511.5483
    290.00    350989.7544    350978.0035    350978.0035    350978.0035    350989.7544    350978.0035    350978.0035    350978.0035    350989.7544
    300.00    340995.6197    340984.2322    340984.2322    340984.2322    340995.6197    340984.2322    340984.2322    340984.2322    340995.6197
    310.00    331497.8863    331486.8413    331486.8413    331486.8413    331497.8863    331486.8413    331486.8413    331486.8413    331497.8863
    320.00    322466.5040    322455.7822    322455.7822    322455.7822    322466.5040    322455.7822    322455.7822    322455.7822    322466.5040
    330.00    313872.8701    313862.4537    313862.4537    313862.4537    313872.8701    313862.4537    313862.4537    313862.4537    313872.8701
    340.00    305689.9525    305679.8251    305679.8251    305679.8251    305689.9525    305679.8251    305679.8251    305679.8251    305689.9525
    350.00    297892.3343    297882.4808    297882.4808    297882.4808    297892.3343    297882.4808    297882.4808    297882.4808    297892.3343
    360.00    290456.2064    290446.6127    290446.6127    290446.6127    290456.2064    290446.6127    290446.6127    290446.6127    290456.2064
    370.00    283359.3244    283349.9776    283349.9776    283349.9776    283359.3244    283349.9776    283349.9776    283349.9776    283359.3244
    380.00    276580.9453    276571.8333    276571.8333    276571.8333    276580.9453    276571.8333    276571.8333    276571.8333    276580.9453
    390.00    270101.7506    270092.8620    270092.8620    270092.8620    270101.7506    270092.8620    270092.8620    270092.8620    270101.7506
    400.00    263903.7631    263895.0876    263895.0876    263895.0876    263903.7631    263895.0876    263895.0876    263895.0876    263903.7631
    410.00    257970.2618    257961.7896    257961.7896    257961.7896    257970.2618    257961.7896    257961.7896    257961.7896    257970.2618
    420.00    252285.6968    252277.4187    252277.4187    252277.4187    252285.6968    252277.4187    252277.4187    252277.4187    252285.6968
    430.00    246835.6066    246827.5141    246827.5141    246827.5141    246835.6066    246827.5141    246827.5141    246827.5141    246835.6066
    440.00    241606.5394    241598.6246    241598.6246    241598.6246    241606.5394    241598.6246    241598.6246    241598.6246    241606.5394
    450.00    236585.9781    236578.2334    236578.2334    236578.2334    236585.9781    236578.2334    236578.2334    236578.2334    236585.9781
    460.00    231762.2701    231754.6885    231754.6885    231754.6885    231762.2701    231754.6885    231754.6885    231754.6885    231762.2701
    470.00    227124.5616    227117.1364    227117.1364    227117.1364    227124.5616    227117.1364    227117.1364    227117.1364    227124.5616
    480.00    222662.7370    222655.4620    222655.4620    222655.4620    222662.7370    222655.4621    222655.4620    222655.4621    222662.7370
    490.00    218367.3622    218360.2317    218360.2317    218360.2317    218367.3622    218360.2317    218360.2317    218360.2317    218367.3622
    500.00    214229.6330    214222.6413    214222.6413    214222.6413    214229.6330    214222.6413    214222.6413    214222.6413    214229.6330
    510.00    210241.3265    210234.4683    210234.4683    210234.4683    210241.3265    210234.4683    210234.4683    210234.4683    210241.3265
    520.00    206394.7573    206388.0278    206388.0278    206388.0278    206394.7573    206388.0278    206388.0278    206388.0278    206394.7573
    530.00    202682.7371    202676.1315    202676.1315    202676.1315    202682.7371    202676.1315    202676.1315    202676.1315    202682.7371
    540.00    199098.5367    199092.0507    199092.0507    199092.0507    199098.5367    199092.0507    199092.0507    199092.0507    199098.5367
    550.00    195635.8525    195629.4818    195629.4818    195629.4818    195635.8525    195629.4818    195629.4818    195629.4818    195635.8525
    560.00    192288.7744    192282.5150    192282.5150    192282.5150    192288.7744    192282.5150    192282.5150    192282.5150    192288.7744
    570.00    189051.7571    189045.6054    189045.6054    189045.6054    189051.7571    189045.6054    189045.6054    189045.6054    189051.7571
    580.00    185919.5939    185913.5461    185913.5461    185913.5461    185919.5939    185913.5461    185913.5461    185913.5461    185919.5939
    590.00    182887.3914    182881.4441    182881.4441    182881.4441    182887.3914    182881.4441    182881.4441    182881.4441    182887.3914
    600.00    179950.5481    179944.6981    179944.6981    179944.6981    179950.5481    179944.6981    179944.6981    179944.6981    179950.5481
    610.00    177104.7329    177098.9771    177098.9771    177098.9771    177104.7329    177098.9771    177098.9771    177098.9771    177104.7329
    620.00    174345.8668    174340.2022    174340.2022    174340.2022    174345.8668    174340.2022    174340.2022    174340.2022    174345.8668
    630.00    171670.1048    171664.5286    171664.5286    171664.5286    171670.1048    171664.5286    171664.5286    171664.5286    171670.1048
    640.00    169073.8203    169068.3298    169068.3298    169068.3298    169073.8203    169068.3298    169068.3298    169068.3298    169073.8203
    650.00    166553.5901    166548.1827    166548.1827    166548.1827    166553.5901    166548.1827    166548.1827    166548.1827    166553.5901
    660.00    164106.1804    164100.8538    164100.8538    164100.8538    164106.1804    164100.8538    164100.8538    164100.8538    164106.1804
    670.00    161728.5349    161723.2866    161723.2866    161723.2866    161728.5349    161723.2866    161723.2866    161723.2866    161728.5349
    680.00    159417.7623    159412.5900    159412.5900    159412.5900    159417.7623    159412.5900    159412.5900    159412.5900    159417.7623
    690.00    157171.1260    157166.0276    157166.0276    157166.0276    157171.1260    157166.0276    157166.0276    157166.0276    157171.1260
    700.00    154986.0341    154981.0076    154981.0076    154981.0076    154986.0341    154981.0076    154981.0076    154981.0076    154986.0341
    710.00    152860.0301    152855.0735    152855.0735    152855.0735    152860.0301    152855.0735    152855.0735    152855.0735    152860.0301
    720.00    150790.7843    150785.8956    150785.8956    150785.8956    150790.7843    150785.8956    150785.8956    150785.8956    150790.7843
    730.00    148776.0858    148771.2632    148771.2633    148771.2632    148776.0858    148771.2633    148771.2633    148771.2633    148776.0858
    740.00    146813.8356    146809.0773    146809.0773    146809.0773    146813.8356    146809.0773    146809.0773    146809.0773    146813.8356
    750.00    144902.0389    144897.3434    144897.3434    144897.3434    144902.0389    144897.3434    144897.3434    144897.3434    144902.0389
    760.00    143038.7999    143034.1655    143034.1655    143034.1655    143038.7999    143034.1655    143034.1655    143034.1655    143038.7999
    770.00    141222.3149    141217.7399    141217.7399    141217.7399    141222.3149    141217.7399    141217.7399    141217.7399    141222.3149
    780.00    139450.8673    139446.3504    139446.3504    139446.3504    139450.8673    139446.3504    139446.3504    139446.3504    139450.8673
    790.00    137722.8225    137718.3621    137718.3621    137718.3621    137722.8225    137718.3621    137718.3621    137718.3621    137722.8225
    800.00    136036.6230    136032.2178    136032.2178    136032.2178    136036.6230    136032.2178    136032.2178    136032.2178    136036.6230
    810.00    134390.7839    134386.4325    134386.4325    134386.4325    134390.7839    134386.4325    134386.4325    134386.4325    134390.7839
    820.00    132783.8892    132779.5903    132779.5903    132779.5903    132783.8892    132779.5903    132779.5903    132779.5903    132783.8892
    830.00    131214.5872    131210.3396    131210.3396    131210.3396    131214.5872    131210.3396    131210.3396    131210.3396    131214.5872
    840.00    129681.5877    129677.3902    129677.3902    129677.3902    129681.5877    129677.3902    129677.3902    129677.3902    129681.5877
    850.00    128183.6580    128179.5094    128179.5094    128179.5094    128183.6580    128179.5094    128179.5094    128179.5094    128183.6580
    860.00    126719.6200    126715.5193    126715.5193    126715.5193    126719.6200    126715.5193    126715.5193    126715.5193    126719.6200
    870.00    125288.3474    125284.2934    125284.2934    125284.2934    125288.3474    125284.2934    125284.2934    125284.2934    125288.3474
    880.00    123888.7626    123884.7542    123884.7542    123884.7542    123888.7626    123884.7542    123884.7542    123884.7542    123888.7626
    890.00    122519.8343    122515.8706    122515.8706    122515.8706    122519.8343    122515.8706    122515.8706    122515.8706    122519.8343
    900.00    121180.5751    121176.6551    121176.6551    121176.6551    121180.5751    121176.6551    121176.6551    121176.6551    121180.5751
    910.00    119870.0391    119866.1618    119866.1618    119866.1618    119870.0391    119866.1618    119866.1618    119866.1618    119870.0391
    920.00    118587.3198    118583.4844    118583.4844    118583.4844    118587.3198    118583.4844    118583.4844    118583.4844    118587.3198
    930.00    117331.5483    117327.7537    117327.7537    117327.7537    117331.5483    117327.7537    117327.7537    117327.7537    117331.5483
    940.00    116101.8909    116098.1364    116098.1364    116098.1364    116101.8909    116098.1364    116098.1364    116098.1364    116101.8909
    950.00    114897.5479    114893.8326    114893.8326    114893.8326    114897.5479    114893.8326    114893.8326    114893.8326    114897.5479
    960.00    113717.7515    113714.0746    113714.0746    113714.0746    113717.7515    113714.0746    113714.0746    113714.0746    113717.7515
    970.00    112561.7645    112558.1253    112558.1253    112558.1253    112561.7645    112558.1253    112558.1253    112558.1253    112561.7645
    980.00    111428.8786    111425.2763    111425.2763    111425.2763    111428.8786    111425.2763    111425.2763    111425.2763    111428.8786
    990.00    110318.4132    110314.8470    110314.8470    110314.8470    110318.4132    110314.8470    110314.8470    110314.8470    110318.4132
   1000.00    109229.7139    109226.1831    109226.1831    109226.1831    109229.7139    109226.1831    109226.1831    109226.1831    109229.7139
