# Temperature [K], Thermal Conductivity (xx, xy, xz, yx, yy, yz, zx, zy, zz) [W/mK]
      0.00         0.0000         0.0000         0.0000         0.0000         0.0000         0.0000         0.0000         0.0000         0.0000
     10.00     11603.0261     11436.6619     11436.6619     11436.6619     11603.0261     11436.6619     11436.6619     11436.6619     11603.0261
     20.00    666023.6346    665940.5699    665940.5699    665940.5699    666023.6346    665940.5699    665940.5699    665940.5699    666023.6346
     30.00   1656116.2094   1656053.6486   1656053.6486   1656053.6486   1656116.2094   1656053.6486   1656053.6486   1656053.6486   1656116.2094
     40.00   2133121.0260   2133068.6063   2133068.6063   2133068.6063   2133121.0260   2133068.6063   2133068.6063   2133068.6063   2133121.0260
     50.00   2236770.3059   2236725.2481   2236725.2481   2236725.2481   2236770.3059   2236725.2481   2236725.2481   2236725.2481   2236770.3059
     60.00   2173079.2877   2173039.9752   2173039.9752   2173039.9752   2173079.2877   2173039.9752   2173039.9752   2173039.9752   2173079.2877
     70.00   2048150.9024   2048116.1672   2048116.1672   2048116.1672   2048150.9024   2048116.1672   2048116.1672   2048116.1672   2048150.9024
     80.00   1908022.5448   1907991.5106   1907991.5106   1907991.5106   1908022.5448   1907991.5106   1907991.5106   1907991.5106   1908022.5448
     90.00   1771341.2417   1771313.2426   1771313.2426   1771313.2426   1771341.2417   1771313.2426   1771313.2426   1771313.2426   1771341.2417
    100.00   1644953.4274   1644927.9515   1644927.9515   1644927.9515   1644953.4274   1644927.9515   1644927.9515   1644927.9515   1644953.4274
    110.00   1530694.7558   1530671.4044   1530671.4044   1530671.4044   1530694.7558   1530671.4044   1530671.4044   1530671.4044   1530694.7558
    120.00   1428366.9350   1428345.3931   1428345.3931   1428345.3931   1428366.9350   1428345.3931   1428345.3931   1428345.3931   1428366.9350
    130.00   1336964.7877   1336944.8031   1336944.8031   1336944.8031   1336964.7877   1336944.8031   1336944.8031   1336944.8031   1336964.7877
    140.00   1255288.3943   1255269.7626   1255269.7626   1255269.7626   1255288.3943   1255269.7626   1255269.7626   1255269.7626   1255288.3943
    150.00   1182139.1613   1182121.7151   1182121.7151   1182121.7151   1182139.1613   1182121.7151   1182121.7151   1182121.7151   1182139.1613
    160.00   1116420.5543   1116404.1546   1116404.1546   1116404.1546   1116420.5543   1116404.1546   1116404.1546   1116404.1546   1116420.5543
    170.00   1057167.1592   1057151.6897   1057151.6897   1057151.6897   1057167.1592   1057151.6897   1057151.6897   1057151.6897   1057167.1592
    180.00   1003555.9145   1003541.2770   1003541.2770   1003541.2770   1003555.9145   1003541.2770   1003541.2770   1003541.2770   1003555.9145
    190.00    954859.7265    954845.8374    954845.8374    954845.8374    954859.7265    954845.8374    954845.8374    954845.8374    954859.7265
    200.00    910481.8917    910468.6789    910468.6789    910468.6789    910481.8917    910468.6789    910468.6789    910468.6789    910481.8917
    210.00    869892.2590    869879.6607    869879.6607    869879.6607    869892.2590    869879.6607    869879.6607    869879.6607    869892.2590
    220.00    832651.9291    832639.8911    832639.8911    832639.8911    832651.9291    832639.8911    832639.8911    832639.8911    832651.9291
    230.00    798374.0387    798362.5138    798362.5138    798362.5138    798374.0387    798362.5138    798362.5138    798362.5138    798374.0387
    240.00    766731.1715    766720.1181    766720.1181    766720.1181    766731.1715    766720.1181    766720.1181    766720.1181    766731.1715
    250.00    737439.4512    737428.8326    737428.8326    737428.8326    737439.4512    737428.8326    737428.8326    737428.8326    737439.4512
    260.00    710253.3943    710243.1778    710243.1778    710243.1778    710253.3943    710243.1778    710243.1778    710243.1778    710253.3943
    270.00    684960.2915    684950.4480    684950.4480    684950.4480    684960.2915    684950.4480    684950.4480    684950.4480    684960.2915
    280.00    661372.2251    661362.7285    661362.7285    661362.7285    661372.2251    661362.7285    661362.7285    661362.7285    661372.2251
    290.00    639327.1027    639317.9295    639317.9295    639317.9295    639327.1027    639317.9295    639317.9295    639317.9295    639327.1027
    300.00    618679.8050    618670.9340    618670.9340    618670.9340    618679.8050    618670.9340    618670.9340    618670.9340    618679.8050
    310.00    599303.2435    599294.6556    599294.6556    599294.6556    599303.2435    599294.6556    599294.6556    599294.6556    599303.2435
    320.00    581087.5983    581079.2760    581079.2760    581079.2760    581087.5983    581079.2760    581079.2760    581079.2760    581087.5983
    330.00    563931.0063    563922.9338    563922.9338    563922.9338    563931.0063    563922.9338    563922.9338    563922.9338    563931.0063
    340.00    547745.9205    547738.0833    547738.0833    547738.0833    547745.9205    547738.0833    547738.0833    547738.0833    547745.9205
    350.00    532453.1227    532445.5075    532445.5075    532445.5075    532453.1227    532445.5075    532445.5075    532445.5075    532453.1227
    360.00    517982.2049    517974.7995    517974.7995    517974.7995    517982.2049    517974.7995    517974.7995    517974.7995    517982.2049
    370.00    504268.8597    504261.6529    504261.6529    504261.6529    504268.8597    504261.6529    504261.6529    504261.6529    504268.8597
    380.00    491254.9539    491247.9355    491247.9355    491247.9355    491254.9539    491247.9355    491247.9355    491247.9355    491254.9539
    390.00    478890.4892    478883.6494    478883.6494    478883.6494    478890.4892    478883.6494    478883.6494    478883.6494    478890.4892
    400.00    467126.6401    467119.9702    467119.9702    467119.9702    467126.6401    467119.9702    467119.9702    467119.9702    467126.6401
    410.00    455923.0687    455916.5605    455916.5605    455916.5605    455923.0687    455916.5605    455916.5605    455916.5605    455923.0687
    420.00    445239.3372    445232.9830    445232.9830    445232.9830    445239.3372    445232.9830    445232.9830    445232.9830    445239.3372
    430.00    435041.3585    435035.1513    435035.1513    435035.1513    435041.3585    435035.1513    435035.1513    435035.1513    435041.3585
    440.00    425296.5525    425290.4855    425290.4855    425290.4855    425296.5525    425290.4855    425290.4855    425290.4855    425296.5525
    450.00    415975.8612    415969.9284    415969.9284    415969.9284    415975.8612    415969.9284    415969.9284    415969.9284    415975.8612
    460.00    407052.1092    407046.3048    407046.3048    407046.3048    407052.1092    407046.3048    407046.3048    407046.3048    407052.1092
    470.00    398500.5056    398494.8240    398494.8240    398494.8240    398500.5056    398494.8240    398494.8240    398494.8240    398500.5056
    480.00    390298.8790    390293.3153    390293.3153    390293.3153    390298.8790    390293.3153    390293.3153    390293.3153    390298.8790
    490.00    382426.3028    382420.8521    382420.8521    382420.8521    382426.3028    382420.8521    382420.8521    382420.8521    382426.3028
    500.00    374862.8570    374857.5149    374857.5149    374857.5149    374862.8570    374857.5149    374857.5149    374857.5149    374862.8570
    510.00    367591.2171    367585.9793    367585.9793    367585.9793    367591.2171    367585.9793    367585.9793    367585.9793    367591.2171
    520.00    360595.0594    360589.9220    360589.9220    360589.9220    360595.0594    360589.9220    360589.9220    360589.9220    360595.0594
    530.00    353859.0984    353854.0575    353854.0575    353854.0575    353859.0984    353854.0575    353854.0575    353854.0575    353859.0984
    540.00    347368.6220    347363.6742    347363.6742    347363.6742    347368.6220    347363.6742    347363.6742    347363.6742    347368.6220
    550.00    341111.0257    341106.1675    341106.1675    341106.1675    341111.0257    341106.1675    341106.1675    341106.1675    341111.0257
    560.00    335073.9176    335069.1459    335069.1459    335069.1459    335073.9176    335069.1459    335069.1459    335069.1459    335073.9176
    570.00    329245.7664    329241.0781    329241.0781    329241.0781    329245.7664    329241.0781    329241.0781    329241.0781    329245.7664
    580.00    323615.9942    323611.3865    323611.3865    323611.3865    323615.9942    323611.3865    323611.3865    323611.3865    323615.9942
    590.00    318174.7640    318170.2341    318170.2341    318170.2341    318174.7640    318170.2341    318170.2341    318170.2341    318174.7640
    600.00    312913.2273    312908.7727    312908.7727    312908.7727    312913.2273    312908.7727    312908.7727    312908.7727    312913.2273
    610.00    307821.5238    307817.1420    307817.1420    307817.1420    307821.5238    307817.1420    307817.1420    307817.1420    307821.5238
    620.00    302892.6918    302888.3806    302888.3806    302888.3806    302892.6918    302888.3806    302888.3806    302888.3806    302892.6918
    630.00    298118.6760    298114.4330    298114.4330    298114.4330    298118.6760    298114.4330    298114.4330    298114.4330    298118.6760
    640.00    293492.0438    293487.8669    293487.8669    293487.8669    293492.0438    293487.8669    293487.8669    293487.8669    293492.0438
    650.00    289006.7307    289002.6180    289002.6180    289002.6180    289006.7307    289002.6180    289002.6180    289002.6180    289006.7307
    660.00    284655.7645    284651.7139    284651.7139    284651.7139    284655.7645    284651.7139    284651.7139    284651.7139    284655.7645
    670.00    280433.5623    280429.5720    280429.5720    280429.5720    280433.5623    280429.5720    280429.5720    280429.5720    280433.5623
    680.00    276334.3259    276330.3942    276330.3942    276330.3942    276334.3259    276330.3942    276330.3942    276330.3942    276334.3259
    690.00    272352.8648    272348.9899    272348.9899    272348.9899    272352.8648    272348.9899    272348.9899    272348.9899    272352.8648
    700.00    268484.1312    268480.3116    268480.3116    268480.3116    268484.1312    268480.3116    268480.3116    268480.3116    268484.1312
    710.00    264723.5307    264719.7648    264719.7648    264719.7648    264723.5307    264719.7648    264719.7648    264719.7648    264723.5307
    720.00    261066.4942    261062.7804    261062.7804    261062.7804    261066.4942    261062.7804    261062.7804    261062.7804    261066.4942
    730.00    257508.9989    257505.3359    257505.3359    257505.3359    257508.9989    257505.3359    257505.3359    257505.3359    257508.9989
    740.00    254046.7870    254043.1734    254043.1734    254043.1734    254046.7870    254043.1734    254043.1734    254043.1734    254046.7870
    750.00    250676.2162    250672.6507    250672.6507    250672.6507    250676.2162    250672.6507    250672.6507    250672.6507    250676.2162
    760.00    247393.6310    247390.1123    247390.1123    247390.1123    247393.6310    247390.1123    247390.1123    247390.1123    247393.6310
    770.00    244195.7811    244192.3081    244192.3081    244192.3081    244195.7811    244192.3081    244192.3081    244192.3081    244195.7811
    780.00    241079.3653    241075.9367    241075.9367    241075.9367    241079.3653    241075.9367    241075.9367    241075.9367    241079.3653
    790.00    238041.3188    238037.9336    238037.9336    238037.9336    238041.3188    238037.9336    238037.9336    238037.9336    238041.3188
    800.00    235078.8606    235075.5176    235075.5176    235075.5176    235078.8606    235075.5176    235075.5176    235075.5176    235078.8606
    810.00    232188.9525    232185.6507    232185.6507    232185.6507    232188.9525    232185.6507    232185.6507    232185.6507    232188.9525
    820.00    229368.9246    229365.6630    229365.6630    229365.6630    229368.9246    229365.6630    229365.6630    229365.6630    229368.9246
    830.00    226616.6673    226613.4449    226613.4449    226613.4449    226616.6673    226613.4449    226613.4449    226613.4449    226616.6673
    840.00    223929.5511    223926.3670    223926.3670    223926.3670    223929.5511    223926.3670    223926.3670    223926.3670    223929.5511
    850.00    221305.1383    221301.9916    221301.9916    221301.9916    221305.1383    221301.9916    221301.9916    221301.9916    221305.1383
    860.00    218741.4735    218738.3634    218738.3634    218738.3634    218741.4735    218738.3634    218738.3634    218738.3634    218741.4735
    870.00    216236.4573    216233.3829    216233.3829    216233.3829    216236.4573    216233.3829    216233.3829    216233.3829    216236.4573
    880.00    213788.0297    213784.9902    213784.9902    213784.9902    213788.0297    213784.9902    213784.9902    213784.9902    213788.0297
    890.00    211394.3340    211391.3286    211391.3286    211391.3286    211394.3340    211391.3286    211391.3286    211391.3286    211394.3340
    900.00    209053.5061    209050.5341    209050.5341    209050.5341    209053.5061    209050.5341    209050.5341    209050.5341    209053.5061
    910.00    206764.0553    206761.1158    206761.1158    206761.1158    206764.0553    206761.1158    206761.1158    206761.1158    206764.0553
    920.00    204523.9939    204521.0863    204521.0863    204521.0863    204523.9939    204521.0863    204521.0863    204521.0863    204523.9939
    930.00    202331.8741    202328.9978    202328.9978    202328.9978    202331.8741    202328.9978    202328.9978    202328.9978    202331.8741
    940.00    200186.1756    200183.3298    200183.3298    200183.3298    200186.1756    200183.3298    200183.3298    200183.3298    200186.1756
    950.00    198085.4414    198082.6255    198082.6255    198082.6255    198085.4414    198082.6255    198082.6255    198082.6255    198085.4414
    960.00    196028.1521    196025.3656    196025.3656    196025.3656    196028.1521    196025.3656    196025.3656    196025.3656    196028.1521
    970.00    194013.2164    194010.4585    194010.4585    194010.4585    194013.2164    194010.4585    194010.4585    194010.4585    194013.2164
    980.00    192038.8702    192036.1404    192036.1404    192036.1404    192038.8702    192036.1404    192036.1404    192036.1404    192038.8702
    990.00    190105.1708    190102.4686    190102.4686    190102.4686    190105.1708    190102.4686    190102.4686    190102.4686    190105.1708
   1000.00    188208.8417    188206.1665    188206.1665    188206.1665    188208.8417    188206.1665    188206.1665    188206.1665    188208.8417
