# Temperature [K], Thermal Conductivity (xx, xy, xz, yx, yy, yz, zx, zy, zz) [W/mK]
      0.00         0.0000         0.0000         0.0000         0.0000         0.0000         0.0000         0.0000         0.0000         0.0000
     10.00      6074.7590         0.0012         0.0012         0.0012      6074.7590         0.0012         0.0012         0.0012      6074.7590
     20.00      1541.9683         0.0139         0.0139         0.0139      1541.9683         0.0139         0.0139         0.0139      1541.9683
     30.00       582.2850         0.0255         0.0255         0.0255       582.2850         0.0255         0.0255         0.0255       582.2850
     40.00       268.4040         0.0241         0.0241         0.0241       268.4040         0.0241         0.0241         0.0241       268.4040
     50.00       161.1453         0.0202         0.0202         0.0202       161.1453         0.0202         0.0202         0.0202       161.1453
     60.00       118.6222         0.0169         0.0169         0.0169       118.6222         0.0169         0.0169         0.0169       118.6222
     70.00        98.2038         0.0144         0.0144         0.0144        98.2038         0.0144         0.0144         0.0144        98.2038
     80.00        86.4308         0.0127         0.0127         0.0127        86.4308         0.0127         0.0127         0.0127        86.4308
     90.00        78.5128         0.0114         0.0114         0.0114        78.5128         0.0114         0.0114         0.0114        78.5128
    100.00        72.5440         0.0105         0.0105         0.0105        72.5440         0.0105         0.0105         0.0105        72.5440
    110.00        67.6908         0.0098         0.0098         0.0098        67.6908         0.0098         0.0098         0.0098        67.6908
    120.00        63.5558         0.0092         0.0092         0.0092        63.5558         0.0092         0.0092         0.0092        63.5558
    130.00        59.9318         0.0087         0.0087         0.0087        59.9318         0.0087         0.0087         0.0087        59.9318
    140.00        56.7006         0.0082         0.0082         0.0082        56.7006         0.0082         0.0082         0.0082        56.7006
    150.00        53.7883         0.0078         0.0078         0.0078        53.7883         0.0078         0.0078         0.0078        53.7883
    160.00        51.1440         0.0075         0.0075         0.0075        51.1440         0.0075         0.0075         0.0075        51.1440
    170.00        48.7306         0.0072         0.0072         0.0072        48.7306         0.0072         0.0072         0.0072        48.7306
    180.00        46.5189         0.0069         0.0069         0.0069        46.5189         0.0069         0.0069         0.0069        46.5189
    190.00        44.4850         0.0066         0.0066         0.0066        44.4850         0.0066         0.0066         0.0066        44.4850
    200.00        42.6094         0.0063         0.0063         0.0063        42.6094         0.0063         0.0063         0.0063        42.6094
    210.00        40.8751         0.0061         0.0061         0.0061        40.8751         0.0061         0.0061         0.0061        40.8751
    220.00        39.2676         0.0059         0.0059         0.0059        39.2676         0.0059         0.0059         0.0059        39.2676
    230.00        37.7742         0.0057         0.0057         0.0057        37.7742         0.0057         0.0057         0.0057        37.7742
    240.00        36.3839         0.0055         0.0055         0.0055        36.3839         0.0055         0.0055         0.0055        36.3839
    250.00        35.0869         0.0053         0.0053         0.0053        35.0869         0.0053         0.0053         0.0053        35.0869
    260.00        33.8745         0.0051         0.0051         0.0051        33.8745         0.0051         0.0051         0.0051        33.8745
    270.00        32.7393         0.0050         0.0050         0.0050        32.7393         0.0050         0.0050         0.0050        32.7393
    280.00        31.6743         0.0048         0.0048         0.0048        31.6743         0.0048         0.0048         0.0048        31.6743
    290.00        30.6736         0.0047         0.0047         0.0047        30.6736         0.0047         0.0047         0.0047        30.6736
    300.00        29.7317         0.0045         0.0045         0.0045        29.7317         0.0045         0.0045         0.0045        29.7317
    310.00        28.8438         0.0044         0.0044         0.0044        28.8438         0.0044         0.0044         0.0044        28.8438
    320.00        28.0055         0.0043         0.0043         0.0043        28.0055         0.0043         0.0043         0.0043        28.0055
    330.00        27.2130         0.0042         0.0042         0.0042        27.2130         0.0042         0.0042         0.0042        27.2130
    340.00        26.4627         0.0041         0.0041         0.0041        26.4627         0.0041         0.0041         0.0041        26.4627
    350.00        25.7515         0.0039         0.0039         0.0039        25.7515         0.0039         0.0039         0.0039        25.7515
    360.00        25.0764         0.0038         0.0038         0.0038        25.0764         0.0038         0.0038         0.0038        25.0764
    370.00        24.4349         0.0038         0.0038         0.0038        24.4349         0.0038         0.0038         0.0038        24.4349
    380.00        23.8245         0.0037         0.0037         0.0037        23.8245         0.0037         0.0037         0.0037        23.8245
    390.00        23.2432         0.0036         0.0036         0.0036        23.2432         0.0036         0.0036         0.0036        23.2432
    400.00        22.6889         0.0035         0.0035         0.0035        22.6889         0.0035         0.0035         0.0035        22.6889
    410.00        22.1599         0.0034         0.0034         0.0034        22.1599         0.0034         0.0034         0.0034        22.1599
    420.00        21.6544         0.0033         0.0033         0.0033        21.6544         0.0033         0.0033         0.0033        21.6544
    430.00        21.1710         0.0033         0.0033         0.0033        21.1710         0.0033         0.0033         0.0033        21.1710
    440.00        20.7084         0.0032         0.0032         0.0032        20.7084         0.0032         0.0032         0.0032        20.7084
    450.00        20.2651         0.0031         0.0031         0.0031        20.2651         0.0031         0.0031         0.0031        20.2651
    460.00        19.8401         0.0031         0.0031         0.0031        19.8401         0.0031         0.0031         0.0031        19.8401
    470.00        19.4323         0.0030         0.0030         0.0030        19.4323         0.0030         0.0030         0.0030        19.4323
    480.00        19.0406         0.0029         0.0029         0.0029        19.0406         0.0029         0.0029         0.0029        19.0406
    490.00        18.6642         0.0029         0.0029         0.0029        18.6642         0.0029         0.0029         0.0029        18.6642
    500.00        18.3021         0.0028         0.0028         0.0028        18.3021         0.0028         0.0028         0.0028        18.3021
    510.00        17.9536         0.0028         0.0028         0.0028        17.9536         0.0028         0.0028         0.0028        17.9536
    520.00        17.6179         0.0027         0.0027         0.0027        17.6179         0.0027         0.0027         0.0027        17.6179
    530.00        17.2944         0.0027         0.0027         0.0027        17.2944         0.0027         0.0027         0.0027        17.2944
    540.00        16.9824         0.0026         0.0026         0.0026        16.9824         0.0026         0.0026         0.0026        16.9824
    550.00        16.6814         0.0026         0.0026         0.0026        16.6814         0.0026         0.0026         0.0026        16.6814
    560.00        16.3907         0.0025         0.0025         0.0025        16.3907         0.0025         0.0025         0.0025        16.3907
    570.00        16.1098         0.0025         0.0025         0.0025        16.1098         0.0025         0.0025         0.0025        16.1098
    580.00        15.8383         0.0025         0.0025         0.0025        15.8383         0.0025         0.0025         0.0025        15.8383
    590.00        15.5757         0.0024         0.0024         0.0024        15.5757         0.0024         0.0024         0.0024        15.5757
    600.00        15.3215         0.0024         0.0024         0.0024        15.3215         0.0024         0.0024         0.0024        15.3215
    610.00        15.0755         0.0023         0.0023         0.0023        15.0755         0.0023         0.0023         0.0023        15.0755
    620.00        14.8371         0.0023         0.0023         0.0023        14.8371         0.0023         0.0023         0.0023        14.8371
    630.00        14.6061         0.0023         0.0023         0.0023        14.6061         0.0023         0.0023         0.0023        14.6061
    640.00        14.3821         0.0022         0.0022         0.0022        14.3821         0.0022         0.0022         0.0022        14.3821
    650.00        14.1649         0.0022         0.0022         0.0022        14.1649         0.0022         0.0022         0.0022        14.1649
    660.00        13.9540         0.0022         0.0022         0.0022        13.9540         0.0022         0.0022         0.0022        13.9540
    670.00        13.7492         0.0021         0.0021         0.0021        13.7492         0.0021         0.0021         0.0021        13.7492
    680.00        13.5504         0.0021         0.0021         0.0021        13.5504         0.0021         0.0021         0.0021        13.5504
    690.00        13.3571         0.0021         0.0021         0.0021        13.3571         0.0021         0.0021         0.0021        13.3571
    700.00        13.1693         0.0021         0.0021         0.0021        13.1693         0.0021         0.0021         0.0021        13.1693
    710.00        12.9866         0.0020         0.0020         0.0020        12.9866         0.0020         0.0020         0.0020        12.9866
    720.00        12.8089         0.0020         0.0020         0.0020        12.8089         0.0020         0.0020         0.0020        12.8089
    730.00        12.6359         0.0020         0.0020         0.0020        12.6359         0.0020         0.0020         0.0020        12.6359
    740.00        12.4676         0.0019         0.0019         0.0019        12.4676         0.0019         0.0019         0.0019        12.4676
    750.00        12.3036         0.0019         0.0019         0.0019        12.3036         0.0019         0.0019         0.0019        12.3036
    760.00        12.1438         0.0019         0.0019         0.0019        12.1438         0.0019         0.0019         0.0019        12.1438
    770.00        11.9881         0.0019         0.0019         0.0019        11.9881         0.0019         0.0019         0.0019        11.9881
    780.00        11.8364         0.0018         0.0018         0.0018        11.8364         0.0018         0.0018         0.0018        11.8364
    790.00        11.6884         0.0018         0.0018         0.0018        11.6884         0.0018         0.0018         0.0018        11.6884
    800.00        11.5440         0.0018         0.0018         0.0018        11.5440         0.0018         0.0018         0.0018        11.5440
    810.00        11.4032         0.0018         0.0018         0.0018        11.4032         0.0018         0.0018         0.0018        11.4032
    820.00        11.2657         0.0018         0.0018         0.0018        11.2657         0.0018         0.0018         0.0018        11.2657
    830.00        11.1315         0.0017         0.0017         0.0017        11.1315         0.0017         0.0017         0.0017        11.1315
    840.00        11.0004         0.0017         0.0017         0.0017        11.0004         0.0017         0.0017         0.0017        11.0004
    850.00        10.8723         0.0017         0.0017         0.0017        10.8723         0.0017         0.0017         0.0017        10.8723
    860.00        10.7472         0.0017         0.0017         0.0017        10.7472         0.0017         0.0017         0.0017        10.7472
    870.00        10.6249         0.0017         0.0017         0.0017        10.6249         0.0017         0.0017         0.0017        10.6249
    880.00        10.5054         0.0016         0.0016         0.0016        10.5054         0.0016         0.0016         0.0016        10.5054
    890.00        10.3885         0.0016         0.0016         0.0016        10.3885         0.0016         0.0016         0.0016        10.3885
    900.00        10.2742         0.0016         0.0016         0.0016        10.2742         0.0016         0.0016         0.0016        10.2742
    910.00        10.1623         0.0016         0.0016         0.0016        10.1623         0.0016         0.0016         0.0016        10.1623
    920.00        10.0528         0.0016         0.0016         0.0016        10.0528         0.0016         0.0016         0.0016        10.0528
    930.00         9.9457         0.0016         0.0016         0.0016         9.9457         0.0016         0.0016         0.0016         9.9457
    940.00         9.8408         0.0015         0.0015         0.0015         9.8408         0.0015         0.0015         0.0015         9.8408
    950.00         9.7381         0.0015         0.0015         0.0015         9.7381         0.0015         0.0015         0.0015         9.7381
    960.00         9.6375         0.0015         0.0015         0.0015         9.6375         0.0015         0.0015         0.0015         9.6375
    970.00         9.5390         0.0015         0.0015         0.0015         9.5390         0.0015         0.0015         0.0015         9.5390
    980.00         9.4424         0.0015         0.0015         0.0015         9.4424         0.0015         0.0015         0.0015         9.4424
    990.00         9.3478         0.0015         0.0015         0.0015         9.3478         0.0015         0.0015         0.0015         9.3478
   1000.00         9.2550         0.0014         0.0014         0.0014         9.2550         0.0014         0.0014         0.0014         9.2550
