# Temperature [K], Thermal Conductivity (xx, xy, xz, yx, yy, yz, zx, zy, zz) [W/mK]
      0.00         0.0000         0.0000         0.0000         0.0000         0.0000         0.0000         0.0000         0.0000         0.0000
     10.00         4.1552         0.1233         0.1233         0.1233         4.1552         0.1233         0.1233         0.1233         4.1552
     20.00      4710.9573      4681.5169      4681.5169      4681.5169      4710.9573      4681.5169      4681.5169      4681.5169      4710.9573
     30.00    111246.2260    111209.9428    111209.9428    111209.9428    111246.2260    111209.9428    111209.9428    111209.9428    111246.2260
     40.00    437868.7948    437843.3808    437843.3807    437843.3808    437868.7948    437843.3807    437843.3807    437843.3807    437868.7948
     50.00    871529.3236    871508.5703    871508.5703    871508.5703    871529.3235    871508.5703    871508.5703    871508.5703    871529.3235
     60.00   1263800.2397   1263781.9015   1263781.9015   1263781.9015   1263800.2397   1263781.9015   1263781.9015   1263781.9015   1263800.2397
     70.00   1553548.5271   1553531.7806   1553531.7806   1553531.7806   1553548.5271   1553531.7806   1553531.7806   1553531.7806   1553548.5271
     80.00   1740206.3943   1740190.8584   1740190.8584   1740190.8584   1740206.3942   1740190.8584   1740190.8584   1740190.8584   1740206.3942
     90.00   1844711.1521   1844696.6178   1844696.6178   1844696.6178   1844711.1521   1844696.6178   1844696.6178   1844696.6178   1844711.1521
    100.00   1890150.6558   1890136.9909   1890136.9909   1890136.9909   1890150.6558   1890136.9909   1890136.9909   1890136.9909   1890150.6558
    110.00   1895462.3164   1895449.4260   1895449.4260   1895449.4260   1895462.3164   1895449.4260   1895449.4260   1895449.4260   1895462.3164
    120.00   1874566.8399   1874554.6495   1874554.6495   1874554.6495   1874566.8399   1874554.6495   1874554.6495   1874554.6495   1874566.8399
    130.00   1837188.4509   1837176.8980   1837176.8980   1837176.8980   1837188.4508   1837176.8980   1837176.8980   1837176.8980   1837188.4508
    140.00   1789941.6298   1789930.6602   1789930.6602   1789930.6602   1789941.6298   1789930.6602   1789930.6602   1789930.6602   1789941.6298
    150.00   1737254.9203   1737244.4859   1737244.4859   1737244.4859   1737254.9203   1737244.4859   1737244.4859   1737244.4859   1737254.9203
    160.00   1682058.1972   1682048.2550   1682048.2550   1682048.2550   1682058.1972   1682048.2550   1682048.2550   1682048.2550   1682058.1972
    170.00   1626266.0091   1626256.5203   1626256.5203   1626256.5203   1626266.0091   1626256.5203   1626256.5203   1626256.5203   1626266.0091
    180.00   1571108.8476   1571099.7773   1571099.7773   1571099.7773   1571108.8476   1571099.7773   1571099.7773   1571099.7773   1571108.8476
    190.00   1517357.6127   1517348.9294   1517348.9294   1517348.9294   1517357.6127   1517348.9294   1517348.9294   1517348.9294   1517357.6127
    200.00   1465475.0935   1465466.7686   1465466.7686   1465466.7686   1465475.0935   1465466.7686   1465466.7686   1465466.7686   1465475.0935
    210.00   1415718.1669   1415710.1746   1415710.1746   1415710.1746   1415718.1669   1415710.1746   1415710.1746   1415710.1746   1415718.1669
    220.00   1368206.8531   1368199.1700   1368199.1700   1368199.1700   1368206.8531   1368199.1700   1368199.1700   1368199.1700   1368206.8531
    230.00   1322971.0737   1322963.6786   1322963.6786   1322963.6786   1322971.0737   1322963.6786   1322963.6786   1322963.6786   1322971.0737
    240.00   1279982.3678   1279975.2413   1279975.2413   1279975.2413   1279982.3678   1279975.2413   1279975.2413   1279975.2413   1279982.3678
    250.00   1239175.4238   1239168.5483   1239168.5483   1239168.5483   1239175.4237   1239168.5483   1239168.5483   1239168.5483   1239175.4237
    260.00   1200462.6855   1200456.0450   1200456.0450   1200456.0450   1200462.6855   1200456.0450   1200456.0450   1200456.0450   1200462.6855
    270.00   1163744.2311   1163737.8110   1163737.8110   1163737.8110   1163744.2311   1163737.8110   1163737.8110   1163737.8110   1163744.2311
    280.00   1128914.4121   1128908.1989   1128908.1989   1128908.1989   1128914.4121   1128908.1989   1128908.1989   1128908.1989   1128914.4121
    290.00   1095866.2677   1095860.2491   1095860.2491   1095860.2491   1095866.2676   1095860.2491   1095860.2491   1095860.2491   1095866.2676
    300.00   1064494.4085   1064488.5733   1064488.5733   1064488.5733   1064494.4084   1064488.5733   1064488.5733   1064488.5733   1064494.4084
    310.00   1034696.8466   1034691.1844   1034691.1844   1034691.1844   1034696.8465   1034691.1844   1034691.1844   1034691.1844   1034696.8465
    320.00   1006376.1024   1006370.6038   1006370.6038   1006370.6038   1006376.1024   1006370.6037   1006370.6038   1006370.6037   1006376.1024
    330.00    979439.8173    979434.4732    979434.4732    979434.4732    979439.8173    979434.4732    979434.4732    979434.4732    979439.8173
    340.00    953801.0299    953795.8323    953795.8323    953795.8323    953801.0299    953795.8323    953795.8323    953795.8323    953801.0299
    350.00    929378.2287    929373.1700    929373.1700    929373.1700    929378.2287    929373.1700    929373.1700    929373.1700    929378.2287
    360.00    906095.2560    906090.3293    906090.3293    906090.3293    906095.2560    906090.3293    906090.3293    906090.3293    906095.2560
    370.00    883881.1190    883876.3177    883876.3177    883876.3177    883881.1190    883876.3177    883876.3177    883876.3177    883881.1190
    380.00    862669.7428    862665.0609    862665.0609    862665.0609    862669.7428    862665.0609    862665.0609    862665.0609    862669.7428
    390.00    842399.6940    842395.1258    842395.1258    842395.1258    842399.6940    842395.1258    842395.1258    842395.1258    842399.6940
    400.00    823013.8891    823009.4294    823009.4294    823009.4294    823013.8891    823009.4294    823009.4294    823009.4294    823013.8891
    410.00    804459.3026    804454.9465    804454.9465    804454.9465    804459.3026    804454.9465    804454.9465    804454.9465    804459.3026
    420.00    786686.6803    786682.4231    786682.4231    786682.4231    786686.6802    786682.4231    786682.4231    786682.4231    786686.6802
    430.00    769650.2638    769646.1014    769646.1014    769646.1014    769650.2638    769646.1013    769646.1014    769646.1013    769650.2638
    440.00    753307.5294    753303.4576    753303.4576    753303.4576    753307.5294    753303.4576    753303.4576    753303.4576    753307.5294
    450.00    737618.9419    737614.9570    737614.9570    737614.9570    737618.9419    737614.9570    737614.9570    737614.9570    737618.9419
    460.00    722547.7252    722543.8236    722543.8236    722543.8236    722547.7252    722543.8236    722543.8236    722543.8236    722547.7252
    470.00    708059.6490    708055.8274    708055.8274    708055.8274    708059.6490    708055.8274    708055.8274    708055.8274    708059.6490
    480.00    694122.8315    694119.0866    694119.0866    694119.0866    694122.8314    694119.0866    694119.0866    694119.0866    694122.8314
    490.00    680707.5567    680703.8858    680703.8858    680703.8858    680707.5567    680703.8857    680703.8858    680703.8857    680707.5567
    500.00    667786.1075    667782.5076    667782.5076    667782.5076    667786.1075    667782.5076    667782.5076    667782.5076    667786.1075
    510.00    655332.6107    655329.0791    655329.0791    655329.0791    655332.6107    655329.0791    655329.0791    655329.0791    655332.6107
    520.00    643322.8955    643319.4298    643319.4298    643319.4298    643322.8955    643319.4298    643319.4298    643319.4298    643322.8955
    530.00    631734.3638    631730.9616    631730.9616    631730.9616    631734.3638    631730.9616    631730.9616    631730.9616    631734.3638
    540.00    620545.8705    620542.5295    620542.5295    620542.5295    620545.8705    620542.5295    620542.5295    620542.5295    620545.8705
    550.00    609737.6142    609734.3323    609734.3323    609734.3323    609737.6142    609734.3323    609734.3323    609734.3323    609737.6142
    560.00    599291.0371    599287.8123    599287.8123    599287.8123    599291.0371    599287.8123    599287.8123    599287.8123    599291.0371
    570.00    589188.7326    589185.5629    589185.5629    589185.5629    589188.7326    589185.5629    589185.5629    589185.5629    589188.7326
    580.00    579414.3609    579411.2446    579411.2446    579411.2446    579414.3609    579411.2446    579411.2446    579411.2446    579414.3609
    590.00    569952.5717    569949.5070    569949.5070    569949.5070    569952.5717    569949.5070    569949.5070    569949.5070    569952.5717
    600.00    560788.9328    560785.9180    560785.9180    560785.9180    560788.9328    560785.9180    560785.9180    560785.9180    560788.9328
    610.00    551909.8646    551906.8982    551906.8981    551906.8982    551909.8646    551906.8981    551906.8981    551906.8981    551909.8646
    620.00    543302.5803    543299.6606    543299.6606    543299.6606    543302.5803    543299.6606    543299.6606    543299.6606    543302.5803
    630.00    534955.0301    534952.1558    534952.1558    534952.1558    534955.0301    534952.1558    534952.1558    534952.1558    534955.0301
    640.00    526855.8508    526853.0205    526853.0205    526853.0205    526855.8508    526853.0205    526853.0205    526853.0205    526855.8508
    650.00    518994.3183    518991.5307    518991.5307    518991.5307    518994.3183    518991.5307    518991.5307    518991.5307    518994.3183
    660.00    511360.3050    511357.5589    511357.5589    511357.5589    511360.3050    511357.5589    511357.5589    511357.5589    511360.3050
    670.00    503944.2395    503941.5336    503941.5336    503941.5336    503944.2395    503941.5336    503941.5336    503941.5336    503944.2395
    680.00    496737.0699    496734.4030    496734.4030    496734.4030    496737.0698    496734.4030    496734.4030    496734.4030    496737.0698
    690.00    489730.2295    489727.6007    489727.6007    489727.6007    489730.2295    489727.6007    489727.6007    489727.6007    489730.2295
    700.00    482915.6062    482913.0142    482913.0142    482913.0142    482915.6062    482913.0142    482913.0142    482913.0142    482915.6062
    710.00    476285.5122    476282.9562    476282.9562    476282.9562    476285.5122    476282.9562    476282.9562    476282.9562    476285.5122
    720.00    469832.6582    469830.1371    469830.1371    469830.1371    469832.6582    469830.1371    469830.1371    469830.1371    469832.6582
    730.00    463550.1277    463547.6406    463547.6406    463547.6406    463550.1277    463547.6406    463547.6406    463547.6406    463550.1277
    740.00    457431.3540    457428.9001    457428.9001    457428.9001    457431.3540    457428.9001    457428.9001    457428.9001    457431.3540
    750.00    451470.0992    451467.6774    451467.6774    451467.6774    451470.0992    451467.6774    451467.6774    451467.6774    451470.0992
    760.00    445660.4333    445658.0430    445658.0430    445658.0430    445660.4333    445658.0430    445658.0430    445658.0430    445660.4333
    770.00    439996.7168    439994.3571    439994.3571    439994.3571    439996.7168    439994.3571    439994.3571    439994.3571    439996.7168
    780.00    434473.5826    434471.2527    434471.2527    434471.2527    434473.5825    434471.2527    434471.2527    434471.2527    434473.5825
    790.00    429085.9201    429083.6193    429083.6193    429083.6193    429085.9201    429083.6193    429083.6193    429083.6193    429085.9201
    800.00    423828.8608    423826.5884    423826.5884    423826.5884    423828.8608    423826.5884    423826.5884    423826.5884    423828.8608
    810.00    418697.7636    418695.5189    418695.5189    418695.5189    418697.7636    418695.5189    418695.5189    418695.5189    418697.7636
    820.00    413688.2025    413685.9848    413685.9848    413685.9848    413688.2025    413685.9848    413685.9848    413685.9848    413688.2024
    830.00    408795.9538    408793.7625    408793.7625    408793.7625    408795.9538    408793.7625    408793.7625    408793.7625    408795.9538
    840.00    404016.9854    404014.8200    404014.8200    404014.8200    404016.9854    404014.8200    404014.8200    404014.8200    404016.9854
    850.00    399347.4459    399345.3056    399345.3056    399345.3056    399347.4459    399345.3056    399345.3056    399345.3056    399347.4459
    860.00    394783.6547    394781.5390    394781.5390    394781.5390    394783.6547    394781.5390    394781.5390    394781.5390    394783.6547
    870.00    390322.0928    390320.0011    390320.0011    390320.0011    390322.0928    390320.0011    390320.0011    390320.0011    390322.0928
    880.00    385959.3940    385957.3259    385957.3259    385957.3259    385959.3940    385957.3259    385957.3259    385957.3259    385959.3940
    890.00    381692.3370    381690.2919    381690.2919    381690.2919    381692.3370    381690.2919    381690.2919    381690.2919    381692.3370
    900.00    377517.8378    377515.8152    377515.8152    377515.8152    377517.8378    377515.8152    377515.8152    377515.8152    377517.8378
    910.00    373432.9420    373430.9414    373430.9414    373430.9414    373432.9420    373430.9414    373430.9414    373430.9414    373432.9420
    920.00    369434.8189    369432.8398    369432.8398    369432.8398    369434.8189    369432.8398    369432.8398    369432.8398    369434.8189
    930.00    365520.7546    365518.7966    365518.7966    365518.7966    365520.7546    365518.7965    365518.7966    365518.7965    365520.7546
    940.00    361688.1462    361686.2088    361686.2088    361686.2088    361688.1462    361686.2088    361686.2088    361686.2088    361688.1462
    950.00    357934.4964    357932.5792    357932.5792    357932.5792    357934.4964    357932.5792    357932.5792    357932.5792    357934.4964
    960.00    354257.4082    354255.5108    354255.5108    354255.5108    354257.4081    354255.5108    354255.5108    354255.5108    354257.4081
    970.00    350654.5797    350652.7017    350652.7017    350652.7017    350654.5797    350652.7017    350652.7017    350652.7017    350654.5797
    980.00    347123.7998    347121.9409    347121.9409    347121.9409    347123.7998    347121.9409    347121.9409    347121.9409    347123.7998
    990.00    343662.9438    343661.1034    343661.1034    343661.1034    343662.9438    343661.1034    343661.1034    343661.1034    343662.9438
   1000.00    340269.9688    340268.1467    340268.1467    340268.1467    340269.9688    340268.1467    340268.1467    340268.1467    340269.9688
