# Temperature [K], Thermal Conductivity (xx, xy, xz, yx, yy, yz, zx, zy, zz) [W/mK]
      0.00         0.0000         0.0000         0.0000         0.0000         0.0000         0.0000         0.0000         0.0000         0.0000
     10.00       137.0685       111.6322       111.6322       111.6322       137.0685       111.6322       111.6322       111.6322       137.0685
     20.00    309585.7839    309517.0138    309517.0138    309517.0138    309585.7839    309517.0138    309517.0138    309517.0138    309585.7839
     30.00   2797490.6481   2797453.0727   2797453.0727   2797453.0727   2797490.6481   2797453.0727   2797453.0727   2797453.0727   2797490.6481
     40.00   6699253.9041   6699221.1127   6699221.1128   6699221.1127   6699253.9041   6699221.1128   6699221.1128   6699221.1128   6699253.9042
     50.00   9929214.8700   9929183.9482   9929183.9483   9929183.9482   9929214.8699   9929183.9483   9929183.9483   9929183.9483   9929214.8700
     60.00  11914101.2436  11914071.9562  11914071.9563  11914071.9562  11914101.2435  11914071.9562  11914071.9563  11914071.9562  11914101.2437
     70.00  12882095.3193  12882067.7247  12882067.7248  12882067.7247  12882095.3192  12882067.7248  12882067.7248  12882067.7248  12882095.3194
     80.00  13181482.5704  13181456.6772  13181456.6773  13181456.6772  13181482.5703  13181456.6773  13181456.6773  13181456.6773  13181482.5705
     90.00  13081634.9000  13081610.6474  13081610.6475  13081610.6474  13081634.8999  13081610.6474  13081610.6475  13081610.6474  13081634.9001
    100.00  12758491.8704  12758469.1554  12758469.1555  12758469.1554  12758491.8703  12758469.1554  12758469.1555  12758469.1554  12758491.8705
    110.00  12319743.0799  12319721.7819  12319721.7820  12319721.7819  12319743.0798  12319721.7819  12319721.7820  12319721.7819  12319743.0800
    120.00  11829307.1421  11829287.1377  11829287.1377  11829287.1377  11829307.1420  11829287.1377  11829287.1377  11829287.1377  11829307.1421
    130.00  11324337.5948  11324318.7660  11324318.7661  11324318.7660  11324337.5947  11324318.7660  11324318.7661  11324318.7660  11324337.5949
    140.00  10825916.9659  10825899.2036  10825899.2037  10825899.2036  10825916.9659  10825899.2037  10825899.2037  10825899.2037  10825916.9660
    150.00  10345545.3586  10345528.5640  10345528.5641  10345528.5640  10345545.3586  10345528.5640  10345528.5641  10345528.5640  10345545.3587
    160.00   9889032.7859   9889016.8704   9889016.8705   9889016.8704   9889032.7858   9889016.8704   9889016.8705   9889016.8704   9889032.7860
    170.00   9458831.3278   9458816.2125   9458816.2126   9458816.2125   9458831.3277   9458816.2126   9458816.2126   9458816.2126   9458831.3278
    180.00   9055436.2204   9055421.8353   9055421.8354   9055421.8353   9055436.2203   9055421.8354   9055421.8354   9055421.8354   9055436.2205
    190.00   8678230.2356   8678216.5184   8678216.5184   8678216.5184   8678230.2355   8678216.5184   8678216.5184   8678216.5184   8678230.2356
    200.00   8325993.2746   8325980.1698   8325980.1699   8325980.1698   8325993.2745   8325980.1699   8325980.1699   8325980.1699   8325993.2746
    210.00   7997209.2418   7997196.7003   7997196.7004   7997196.7003   7997209.2418   7997196.7004   7997196.7004   7997196.7004   7997209.2419
    220.00   7690249.3679   7690237.3456   7690237.3457   7690237.3456   7690249.3678   7690237.3456   7690237.3457   7690237.3456   7690249.3679
    230.00   7403479.8543   7403468.3119   7403468.3120   7403468.3119   7403479.8542   7403468.3120   7403468.3120   7403468.3120   7403479.8543
    240.00   7135323.0431   7135311.9455   7135311.9455   7135311.9455   7135323.0431   7135311.9455   7135311.9455   7135311.9455   7135323.0432
    250.00   6884290.0681   6884279.3834   6884279.3835   6884279.3834   6884290.0680   6884279.3834   6884279.3835   6884279.3834   6884290.0681
    260.00   6648996.1040   6648985.8038   6648985.8039   6648985.8038   6648996.1040   6648985.8038   6648985.8039   6648985.8038   6648996.1041
    270.00   6428165.1333   6428155.1917   6428155.1918   6428155.1917   6428165.1333   6428155.1917   6428155.1918   6428155.1917   6428165.1334
    280.00   6220628.5433   6220618.9369   6220618.9370   6220618.9369   6220628.5433   6220618.9369   6220618.9370   6220618.9369   6220628.5434
    290.00   6025320.2480   6025310.9556   6025310.9556   6025310.9556   6025320.2480   6025310.9556   6025310.9556   6025310.9556   6025320.2481
    300.00   5841270.0055   5841261.0077   5841261.0078   5841261.0077   5841270.0055   5841261.0078   5841261.0078   5841261.0078   5841270.0056
    310.00   5667595.9600   5667587.2391   5667587.2392   5667587.2391   5667595.9599   5667587.2392   5667587.2392   5667587.2392   5667595.9600
    320.00   5503497.0294   5503488.5694   5503488.5695   5503488.5694   5503497.0294   5503488.5695   5503488.5695   5503488.5695   5503497.0295
    330.00   5348245.5044   5348237.2904   5348237.2904   5348237.2904   5348245.5044   5348237.2904   5348237.2904   5348237.2904   5348245.5044
    340.00   5201180.0577   5201172.0760   5201172.0761   5201172.0760   5201180.0576   5201172.0760   5201172.0761   5201172.0760   5201180.0577
    350.00   5061699.2667   5061691.5049   5061691.5050   5061691.5049   5061699.2667   5061691.5049   5061691.5050   5061691.5049   5061699.2668
    360.00   4929255.6854   4929248.1318   4929248.1319   4929248.1318   4929255.6854   4929248.1319   4929248.1319   4929248.1319   4929255.6854
    370.00   4803350.4644   4803343.1084   4803343.1084   4803343.1084   4803350.4644   4803343.1084   4803343.1084   4803343.1084   4803350.4644
    380.00   4683528.4986   4683521.3302   4683521.3303   4683521.3302   4683528.4985   4683521.3302   4683521.3303   4683521.3302   4683528.4986
    390.00   4569374.0666   4569367.0767   4569367.0767   4569367.0767   4569374.0666   4569367.0767   4569367.0767   4569367.0767   4569374.0666
    400.00   4460506.9233   4460500.1033   4460500.1033   4460500.1033   4460506.9233   4460500.1033   4460500.1033   4460500.1033   4460506.9233
    410.00   4356578.8036   4356572.1456   4356572.1456   4356572.1456   4356578.8036   4356572.1456   4356572.1456   4356572.1456   4356578.8036
    420.00   4257270.2976   4257263.7941   4257263.7941   4257263.7941   4257270.2976   4257263.7941   4257263.7941   4257263.7941   4257270.2976
    430.00   4162288.0581   4162281.7022   4162281.7023   4162281.7022   4162288.0581   4162281.7023   4162281.7023   4162281.7023   4162288.0581
    440.00   4071362.3059   4071356.0912   4071356.0912   4071356.0912   4071362.3058   4071356.0912   4071356.0912   4071356.0912   4071362.3059
    450.00   3984244.5991   3984238.5195   3984238.5195   3984238.5195   3984244.5991   3984238.5195   3984238.5195   3984238.5195   3984244.5992
    460.00   3900705.8391   3900699.8888   3900699.8889   3900699.8888   3900705.8390   3900699.8888   3900699.8889   3900699.8888   3900705.8391
    470.00   3820534.4842   3820528.6580   3820528.6580   3820528.6580   3820534.4841   3820528.6580   3820528.6580   3820528.6580   3820534.4842
    480.00   3743534.9507   3743529.2435   3743529.2436   3743529.2435   3743534.9507   3743529.2436   3743529.2436   3743529.2436   3743534.9507
    490.00   3669526.1780   3669520.5851   3669520.5852   3669520.5851   3669526.1779   3669520.5851   3669520.5852   3669520.5851   3669526.1780
    500.00   3598340.3402   3598334.8573   3598334.8573   3598334.8573   3598340.3402   3598334.8573   3598334.8573   3598334.8573   3598340.3403
    510.00   3529821.6889   3529816.3116   3529816.3116   3529816.3116   3529821.6889   3529816.3116   3529816.3116   3529816.3116   3529821.6889
    520.00   3463825.5102   3463820.2346   3463820.2347   3463820.2346   3463825.5102   3463820.2346   3463820.2347   3463820.2346   3463825.5102
    530.00   3400217.1864   3400212.0088   3400212.0088   3400212.0088   3400217.1864   3400212.0088   3400212.0088   3400212.0088   3400217.1864
    540.00   3338871.3482   3338866.2650   3338866.2651   3338866.2650   3338871.3482   3338866.2650   3338866.2651   3338866.2650   3338871.3482
    550.00   3279671.1096   3279666.1175   3279666.1175   3279666.1175   3279671.1096   3279666.1175   3279666.1175   3279666.1175   3279671.1097
    560.00   3222507.3753   3222502.4710   3222502.4711   3222502.4710   3222507.3753   3222502.4711   3222502.4711   3222502.4711   3222507.3753
    570.00   3167278.2134   3167273.3940   3167273.3940   3167273.3940   3167278.2134   3167273.3940   3167273.3940   3167273.3940   3167278.2134
    580.00   3113888.2869   3113883.5495   3113883.5495   3113883.5495   3113888.2869   3113883.5495   3113883.5495   3113883.5495   3113888.2869
    590.00   3062248.3372   3062243.6791   3062243.6791   3062243.6791   3062248.3372   3062243.6791   3062243.6791   3062243.6791   3062248.3373
    600.00   3012274.7145   3012270.1330   3012270.1331   3012270.1330   3012274.7145   3012270.1331   3012270.1331   3012270.1331   3012274.7145
    610.00   2963888.9502   2963884.4430   2963884.4430   2963884.4430   2963888.9502   2963884.4430   2963884.4430   2963884.4430   2963888.9502
    620.00   2917017.3677   2917012.9323   2917012.9323   2917012.9323   2917017.3676   2917012.9323   2917012.9323   2917012.9323   2917017.3677
    630.00   2871590.7265   2871586.3607   2871586.3607   2871586.3607   2871590.7264   2871586.3607   2871586.3607   2871586.3607   2871590.7265
    640.00   2827543.8977   2827539.5994   2827539.5995   2827539.5994   2827543.8977   2827539.5995   2827539.5995   2827539.5995   2827543.8978
    650.00   2784815.5672   2784811.3343   2784811.3343   2784811.3343   2784815.5671   2784811.3343   2784811.3343   2784811.3343   2784815.5672
    660.00   2743347.9628   2743343.7934   2743343.7935   2743343.7934   2743347.9628   2743343.7935   2743343.7935   2743343.7935   2743347.9628
    670.00   2703086.6060   2703082.4982   2703082.4982   2703082.4982   2703086.6060   2703082.4982   2703082.4982   2703082.4982   2703086.6060
    680.00   2663980.0821   2663976.0342   2663976.0342   2663976.0342   2663980.0821   2663976.0342   2663976.0342   2663976.0342   2663980.0822
    690.00   2625979.8309   2625975.8411   2625975.8411   2625975.8411   2625979.8309   2625975.8411   2625975.8411   2625975.8411   2625979.8309
    700.00   2589039.9524   2589036.0190   2589036.0191   2589036.0190   2589039.9524   2589036.0191   2589036.0191   2589036.0191   2589039.9524
    710.00   2553117.0296   2553113.1511   2553113.1511   2553113.1511   2553117.0295   2553113.1511   2553113.1511   2553113.1511   2553117.0296
    720.00   2518169.9638   2518166.1388   2518166.1388   2518166.1388   2518169.9638   2518166.1388   2518166.1388   2518166.1388   2518169.9638
    730.00   2484159.8238   2484156.0507   2484156.0507   2484156.0507   2484159.8237   2484156.0507   2484156.0507   2484156.0507   2484159.8238
    740.00   2451049.7055   2451045.9830   2451045.9831   2451045.9830   2451049.7055   2451045.9831   2451045.9831   2451045.9831   2451049.7056
    750.00   2418804.6035   2418800.9302   2418800.9302   2418800.9302   2418804.6035   2418800.9302   2418800.9302   2418800.9302   2418804.6035
    760.00   2387391.2907   2387387.6654   2387387.6654   2387387.6654   2387391.2907   2387387.6654   2387387.6654   2387387.6654   2387391.2907
    770.00   2356778.2082   2356774.6297   2356774.6297   2356774.6297   2356778.2082   2356774.6297   2356774.6297   2356774.6297   2356778.2083
    780.00   2326935.3628   2326931.8298   2326931.8298   2326931.8298   2326935.3628   2326931.8298   2326931.8298   2326931.8298   2326935.3628
    790.00   2297834.2312   2297830.7426   2297830.7426   2297830.7426   2297834.2312   2297830.7426   2297830.7426   2297830.7426   2297834.2312
    800.00   2269447.6723   2269444.2270   2269444.2270   2269444.2270   2269447.6723   2269444.2270   2269444.2270   2269444.2270   2269447.6724
    810.00   2241749.8448   2241746.4417   2241746.4417   2241746.4417   2241749.8448   2241746.4417   2241746.4417   2241746.4417   2241749.8448
    820.00   2214716.1307   2214712.7688   2214712.7688   2214712.7688   2214716.1306   2214712.7688   2214712.7688   2214712.7688   2214716.1307
    830.00   2188323.0644   2188319.7428   2188319.7428   2188319.7428   2188323.0643   2188319.7428   2188319.7428   2188319.7428   2188323.0644
    840.00   2162548.2665   2162544.9841   2162544.9842   2162544.9841   2162548.2664   2162544.9842   2162544.9842   2162544.9842   2162548.2665
    850.00   2137370.3819   2137367.1380   2137367.1380   2137367.1380   2137370.3819   2137367.1380   2137367.1380   2137367.1380   2137370.3819
    860.00   2112769.0224   2112765.8160   2112765.8160   2112765.8160   2112769.0224   2112765.8160   2112765.8160   2112765.8160   2112769.0225
    870.00   2088724.7128   2088721.5430   2088721.5431   2088721.5430   2088724.7128   2088721.5431   2088721.5431   2088721.5431   2088724.7129
    880.00   2065218.8406   2065215.7066   2065215.7066   2065215.7066   2065218.8406   2065215.7066   2065215.7066   2065215.7066   2065218.8406
    890.00   2042233.6090   2042230.5101   2042230.5101   2042230.5101   2042233.6090   2042230.5101   2042230.5101   2042230.5101   2042233.6091
    900.00   2019751.9932   2019748.9285   2019748.9285   2019748.9285   2019751.9932   2019748.9285   2019748.9285   2019748.9285   2019751.9932
    910.00   1997757.6988   1997754.6676   1997754.6676   1997754.6676   1997757.6988   1997754.6676   1997754.6676   1997754.6676   1997757.6988
    920.00   1976235.1236   1976232.1252   1976232.1252   1976232.1252   1976235.1236   1976232.1252   1976232.1252   1976232.1252   1976235.1237
    930.00   1955169.3213   1955166.3549   1955166.3549   1955166.3549   1955169.3213   1955166.3549   1955166.3549   1955166.3549   1955169.3213
    940.00   1934545.9674   1934543.0324   1934543.0324   1934543.0324   1934545.9673   1934543.0324   1934543.0324   1934543.0324   1934545.9674
    950.00   1914351.3275   1914348.4232   1914348.4232   1914348.4232   1914351.3275   1914348.4232   1914348.4232   1914348.4232   1914351.3275
    960.00   1894572.2274   1894569.3533   1894569.3533   1894569.3533   1894572.2274   1894569.3533   1894569.3533   1894569.3533   1894572.2274
    970.00   1875196.0250   1875193.1803   1875193.1803   1875193.1803   1875196.0250   1875193.1803   1875193.1803   1875193.1803   1875196.0250
    980.00   1856210.5835   1856207.7677   1856207.7677   1856207.7677   1856210.5834   1856207.7677   1856207.7677   1856207.7677   1856210.5835
    990.00   1837604.2468   1837601.4594   1837601.4594   1837601.4594   1837604.2468   1837601.4594   1837601.4594   1837601.4594   1837604.2468
   1000.00   1819365.8161   1819363.0564   1819363.0564   1819363.0564   1819365.8161   1819363.0564   1819363.0564   1819363.0564   1819365.8161
