# Temperature [K], Thermal Conductivity (xx, xy, xz, yx, yy, yz, zx, zy, zz) [W/mK]
      0.00         0.0000         0.0000         0.0000         0.0000         0.0000         0.0000         0.0000         0.0000         0.0000
     10.00       626.3193       382.0656       382.0656       382.0656       626.3193       382.0656       382.0656       382.0656       626.3193
     20.00    339160.0373    338990.2518    338990.2518    338990.2518    339160.0373    338990.2518    338990.2518    338990.2518    339160.0373
     30.00   2175669.7300   2175571.3434   2175571.3434   2175571.3434   2175669.7300   2175571.3434   2175571.3434   2175571.3434   2175669.7300
     40.00   4449402.0730   4449318.6648   4449318.6648   4449318.6648   4449402.0730   4449318.6648   4449318.6648   4449318.6648   4449402.0730
     50.00   6043661.5231   6043584.5646   6043584.5646   6043584.5646   6043661.5231   6043584.5646   6043584.5646   6043584.5646   6043661.5231
     60.00   6875346.5716   6875274.6033   6875274.6033   6875274.6033   6875346.5716   6875274.6033   6875274.6033   6875274.6033   6875346.5716
     70.00   7179538.8489   7179471.5888   7179471.5888   7179471.5888   7179538.8489   7179471.5888   7179471.5888   7179471.5888   7179538.8489
     80.00   7172867.8912   7172805.1323   7172805.1323   7172805.1323   7172867.8912   7172805.1323   7172805.1323   7172805.1323   7172867.8912
     90.00   6998094.9604   6998036.4195   6998036.4195   6998036.4195   6998094.9604   6998036.4195   6998036.4195   6998036.4195   6998094.9604
    100.00   6739933.4843   6739878.8263   6739878.8263   6739878.8263   6739933.4843   6739878.8263   6739878.8263   6739878.8263   6739933.4843
    110.00   6446509.3217   6446458.1985   6446458.1985   6446458.1985   6446509.3217   6446458.1985   6446458.1985   6446458.1985   6446509.3217
    120.00   6144451.7636   6144403.8389   6144403.8389   6144403.8389   6144451.7636   6144403.8389   6144403.8389   6144403.8389   6144451.7636
    130.00   5848068.7823   5848023.7448   5848023.7448   5848023.7448   5848068.7822   5848023.7448   5848023.7448   5848023.7448   5848068.7822
    140.00   5564668.9831   5564626.5514   5564626.5513   5564626.5514   5564668.9831   5564626.5513   5564626.5513   5564626.5513   5564668.9831
    150.00   5297606.3459   5297566.2687   5297566.2687   5297566.2687   5297606.3459   5297566.2687   5297566.2687   5297566.2687   5297606.3458
    160.00   5048020.4902   5047982.5449   5047982.5449   5047982.5449   5048020.4902   5047982.5449   5047982.5449   5047982.5449   5048020.4902
    170.00   4815834.5949   4815798.5848   4815798.5848   4815798.5848   4815834.5949   4815798.5848   4815798.5848   4815798.5848   4815834.5949
    180.00   4600329.3751   4600295.1265   4600295.1265   4600295.1265   4600329.3751   4600295.1265   4600295.1265   4600295.1265   4600329.3751
    190.00   4400473.1656   4400440.5252   4400440.5252   4400440.5252   4400473.1656   4400440.5252   4400440.5252   4400440.5252   4400473.1656
    200.00   4215110.5692   4215079.4011   4215079.4011   4215079.4011   4215110.5692   4215079.4011   4215079.4011   4215079.4011   4215110.5692
    210.00   4043068.5303   4043038.7141   4043038.7141   4043038.7141   4043068.5303   4043038.7141   4043038.7141   4043038.7141   4043068.5303
    220.00   3883214.0054   3883185.4341   3883185.4341   3883185.4341   3883214.0054   3883185.4341   3883185.4341   3883185.4341   3883214.0054
    230.00   3734483.2610   3734455.8391   3734455.8391   3734455.8391   3734483.2610   3734455.8391   3734455.8391   3734455.8391   3734483.2610
    240.00   3595894.6398   3595868.2818   3595868.2818   3595868.2818   3595894.6398   3595868.2818   3595868.2818   3595868.2818   3595894.6398
    250.00   3466551.8392   3466526.4685   3466526.4685   3466526.4685   3466551.8392   3466526.4685   3466526.4685   3466526.4685   3466551.8392
    260.00   3345641.9039   3345617.4515   3345617.4515   3345617.4515   3345641.9039   3345617.4515   3345617.4515   3345617.4515   3345641.9039
    270.00   3232430.4382   3232406.8418   3232406.8418   3232406.8418   3232430.4382   3232406.8418   3232406.8418   3232406.8418   3232430.4382
    280.00   3126255.5226   3126232.7260   3126232.7260   3126232.7260   3126255.5226   3126232.7260   3126232.7260   3126232.7260   3126255.5225
    290.00   3026521.2016   3026499.1537   3026499.1537   3026499.1537   3026521.2016   3026499.1537   3026499.1537   3026499.1537   3026521.2016
    300.00   2932691.0369   2932669.6912   2932669.6912   2932669.6912   2932691.0369   2932669.6912   2932669.6912   2932669.6912   2932691.0369
    310.00   2844281.9907   2844261.3048   2844261.3048   2844261.3048   2844281.9907   2844261.3048   2844261.3048   2844261.3048   2844281.9907
    320.00   2760858.7728   2760838.7080   2760838.7080   2760838.7080   2760858.7728   2760838.7080   2760838.7080   2760838.7080   2760858.7728
    330.00   2682028.6994   2682009.2202   2682009.2202   2682009.2202   2682028.6994   2682009.2202   2682009.2202   2682009.2202   2682028.6994
    340.00   2607437.0679   2607418.1417   2607418.1417   2607418.1417   2607437.0679   2607418.1417   2607418.1417   2607418.1417   2607437.0679
    350.00   2536763.0258   2536744.6226   2536744.6226   2536744.6226   2536763.0258   2536744.6226   2536744.6226   2536744.6226   2536763.0258
    360.00   2469715.8975   2469697.9896   2469697.9896   2469697.9896   2469715.8975   2469697.9896   2469697.9896   2469697.9896   2469715.8975
    370.00   2406031.9274   2406014.4893   2406014.4893   2406014.4893   2406031.9274   2406014.4893   2406014.4893   2406014.4893   2406031.9274
    380.00   2345471.3985   2345454.4065   2345454.4065   2345454.4065   2345471.3985   2345454.4065   2345454.4065   2345454.4065   2345471.3985
    390.00   2287816.0841   2287799.5161   2287799.5161   2287799.5161   2287816.0840   2287799.5161   2287799.5161   2287799.5161   2287816.0840
    400.00   2232866.9947   2232850.8305   2232850.8305   2232850.8305   2232866.9947   2232850.8305   2232850.8305   2232850.8305   2232866.9947
    410.00   2180442.3868   2180426.6074   2180426.6074   2180426.6074   2180442.3868   2180426.6074   2180426.6074   2180426.6074   2180442.3868
    420.00   2130375.9999   2130360.5876   2130360.5876   2130360.5876   2130375.9999   2130360.5876   2130360.5876   2130360.5876   2130375.9999
    430.00   2082515.4955   2082500.4338   2082500.4338   2082500.4338   2082515.4955   2082500.4338   2082500.4338   2082500.4338   2082515.4955
    440.00   2036721.0741   2036706.3476   2036706.3476   2036706.3476   2036721.0741   2036706.3476   2036706.3476   2036706.3476   2036721.0741
    450.00   1992864.2462   1992849.8404   1992849.8404   1992849.8404   1992864.2462   1992849.8404   1992849.8404   1992849.8404   1992864.2462
    460.00   1950826.7411   1950812.6425   1950812.6425   1950812.6425   1950826.7411   1950812.6425   1950812.6425   1950812.6425   1950826.7411
    470.00   1910499.5350   1910485.7309   1910485.7309   1910485.7309   1910499.5350   1910485.7309   1910485.7309   1910485.7309   1910499.5350
    480.00   1871781.9850   1871768.4634   1871768.4634   1871768.4634   1871781.9850   1871768.4634   1871768.4634   1871768.4634   1871781.9850
    490.00   1834581.0557   1834567.8055   1834567.8055   1834567.8055   1834581.0557   1834567.8054   1834567.8055   1834567.8054   1834581.0557
    500.00   1798810.6283   1798797.6387   1798797.6387   1798797.6387   1798810.6283   1798797.6387   1798797.6387   1798797.6387   1798810.6283
    510.00   1764390.8809   1764378.1421   1764378.1421   1764378.1421   1764390.8809   1764378.1421   1764378.1421   1764378.1421   1764390.8809
    520.00   1731247.7341   1731235.2366   1731235.2366   1731235.2366   1731247.7341   1731235.2366   1731235.2366   1731235.2366   1731247.7341
    530.00   1699312.3517   1699300.0866   1699300.0866   1699300.0866   1699312.3517   1699300.0866   1699300.0866   1699300.0866   1699312.3517
    540.00   1668520.6924   1668508.6513   1668508.6513   1668508.6513   1668520.6924   1668508.6513   1668508.6513   1668508.6513   1668520.6924
    550.00   1638813.1058   1638801.2807   1638801.2807   1638801.2807   1638813.1058   1638801.2807   1638801.2807   1638801.2807   1638813.1058
    560.00   1610133.9676   1610122.3509   1610122.3508   1610122.3509   1610133.9676   1610122.3508   1610122.3508   1610122.3508   1610133.9676
    570.00   1582431.3499   1582419.9344   1582419.9344   1582419.9344   1582431.3499   1582419.9344   1582419.9344   1582419.9344   1582431.3499
    580.00   1555656.7237   1555645.5027   1555645.5027   1555645.5027   1555656.7237   1555645.5027   1555645.5027   1555645.5027   1555656.7237
    590.00   1529764.6881   1529753.6551   1529753.6551   1529753.6551   1529764.6881   1529753.6551   1529753.6551   1529753.6551   1529764.6881
    600.00   1504712.7257   1504701.8745   1504701.8745   1504701.8745   1504712.7257   1504701.8745   1504701.8745   1504701.8745   1504712.7257
    610.00   1480460.9794   1480450.3041   1480450.3041   1480450.3041   1480460.9794   1480450.3041   1480450.3041   1480450.3041   1480460.9794
    620.00   1456972.0500   1456961.5451   1456961.5451   1456961.5451   1456972.0500   1456961.5451   1456961.5451   1456961.5451   1456972.0500
    630.00   1434210.8116   1434200.4718   1434200.4718   1434200.4718   1434210.8116   1434200.4718   1434200.4718   1434200.4718   1434210.8116
    640.00   1412144.2431   1412134.0632   1412134.0632   1412134.0632   1412144.2431   1412134.0632   1412134.0632   1412134.0632   1412144.2431
    650.00   1390741.2742   1390731.2494   1390731.2494   1390731.2494   1390741.2742   1390731.2494   1390731.2494   1390731.2494   1390741.2742
    660.00   1369972.6450   1369962.7707   1369962.7707   1369962.7707   1369972.6450   1369962.7707   1369962.7707   1369962.7707   1369972.6450
    670.00   1349810.7772   1349801.0490   1349801.0490   1349801.0490   1349810.7772   1349801.0490   1349801.0490   1349801.0490   1349810.7772
    680.00   1330229.6559   1330220.0694   1330220.0694   1330220.0694   1330229.6559   1330220.0694   1330220.0694   1330220.0694   1330229.6559
    690.00   1311204.7211   1311195.2724   1311195.2724   1311195.2724   1311204.7211   1311195.2724   1311195.2724   1311195.2724   1311204.7211
    700.00   1292712.7686   1292703.4538   1292703.4538   1292703.4538   1292712.7686   1292703.4538   1292703.4538   1292703.4538   1292712.7686
    710.00   1274731.8582   1274722.6735   1274722.6735   1274722.6735   1274731.8582   1274722.6735   1274722.6735   1274722.6735   1274731.8582
    720.00   1257241.2294   1257232.1713   1257232.1713   1257232.1713   1257241.2294   1257232.1713   1257232.1713   1257232.1713   1257241.2294
    730.00   1240221.2238   1240212.2888   1240212.2888   1240212.2888   1240221.2238   1240212.2888   1240212.2888   1240212.2888   1240221.2238
    740.00   1223653.2133   1223644.3982   1223644.3982   1223644.3982   1223653.2133   1223644.3982   1223644.3982   1223644.3982   1223653.2133
    750.00   1207519.5342   1207510.8358   1207510.8358   1207510.8358   1207519.5342   1207510.8358   1207510.8358   1207510.8358   1207519.5342
    760.00   1191803.4257   1191794.8409   1191794.8409   1191794.8409   1191803.4257   1191794.8409   1191794.8409   1191794.8409   1191803.4257
    770.00   1176488.9734   1176480.4994   1176480.4994   1176480.4994   1176488.9734   1176480.4994   1176480.4994   1176480.4994   1176488.9734
    780.00   1161561.0570   1161552.6909   1161552.6909   1161552.6909   1161561.0570   1161552.6909   1161552.6909   1161552.6909   1161561.0570
    790.00   1147005.3014   1146997.0404   1146997.0404   1146997.0404   1147005.3014   1146997.0404   1146997.0404   1146997.0404   1147005.3014
    800.00   1132808.0317   1132799.8734   1132799.8734   1132799.8734   1132808.0317   1132799.8734   1132799.8734   1132799.8734   1132808.0317
    810.00   1118956.2317   1118948.1735   1118948.1735   1118948.1735   1118956.2317   1118948.1735   1118948.1735   1118948.1735   1118956.2317
    820.00   1105437.5042   1105429.5437   1105429.5437   1105429.5437   1105437.5042   1105429.5436   1105429.5437   1105429.5436   1105437.5042
    830.00   1092240.0355   1092232.1703   1092232.1703   1092232.1703   1092240.0355   1092232.1703   1092232.1703   1092232.1703   1092240.0355
    840.00   1079352.5612   1079344.7891   1079344.7891   1079344.7891   1079352.5612   1079344.7891   1079344.7891   1079344.7891   1079352.5612
    850.00   1066764.3352   1066756.6540   1066756.6540   1066756.6540   1066764.3352   1066756.6540   1066756.6540   1066756.6540   1066764.3352
    860.00   1054465.0998   1054457.5075   1054457.5075   1054457.5075   1054465.0998   1054457.5075   1054457.5075   1054457.5075   1054465.0998
    870.00   1042445.0591   1042437.5536   1042437.5536   1042437.5536   1042445.0591   1042437.5536   1042437.5536   1042437.5536   1042445.0591
    880.00   1030694.8528   1030687.4321   1030687.4321   1030687.4321   1030694.8528   1030687.4321   1030687.4321   1030687.4321   1030694.8528
    890.00   1019205.5328   1019198.1950   1019198.1950   1019198.1950   1019205.5328   1019198.1950   1019198.1950   1019198.1950   1019205.5328
    900.00   1007968.5404   1007961.2838   1007961.2838   1007961.2838   1007968.5404   1007961.2838   1007961.2838   1007961.2838   1007968.5404
    910.00    996975.6861    996968.5089    996968.5089    996968.5089    996975.6861    996968.5089    996968.5089    996968.5089    996975.6861
    920.00    986219.1294    986212.0297    986212.0297    986212.0297    986219.1294    986212.0297    986212.0297    986212.0297    986219.1294
    930.00    975691.3605    975684.3368    975684.3368    975684.3368    975691.3605    975684.3368    975684.3368    975684.3368    975691.3605
    940.00    965385.1836    965378.2343    965378.2343    965378.2343    965385.1836    965378.2343    965378.2343    965378.2343    965385.1836
    950.00    955293.7003    955286.8238    955286.8238    955286.8238    955293.7003    955286.8238    955286.8238    955286.8238    955293.7003
    960.00    945410.2945    945403.4893    945403.4893    945403.4893    945410.2945    945403.4893    945403.4893    945403.4893    945410.2945
    970.00    935728.6183    935721.8830    935721.8830    935721.8830    935728.6183    935721.8830    935721.8830    935721.8830    935728.6183
    980.00    926242.5785    926235.9116    926235.9116    926235.9116    926242.5785    926235.9116    926235.9116    926235.9116    926242.5785
    990.00    916946.3240    916939.7242    916939.7242    916939.7242    916946.3240    916939.7242    916939.7242    916939.7242    916946.3240
   1000.00    907834.2340    907827.7000    907827.7000    907827.7000    907834.2340    907827.7000    907827.7000    907827.7000    907834.2340
