# Temperature [K], Thermal Conductivity (xx, xy, xz, yx, yy, yz, zx, zy, zz) [W/mK]
      0.00         0.0000         0.0000         0.0000         0.0000         0.0000         0.0000         0.0000         0.0000         0.0000
     10.00      3859.1683         0.0008         0.0008         0.0008      3859.1681         0.0008         0.0008         0.0008      3859.1683
     20.00      1037.6928         0.0002         0.0002         0.0002      1037.6928         0.0002         0.0002         0.0002      1037.6928
     30.00       567.6138         0.0001         0.0001         0.0001       567.6138         0.0001         0.0001         0.0001       567.6138
     40.00       391.7905        -0.0000        -0.0000        -0.0000       391.7905        -0.0000        -0.0000        -0.0000       391.7905
     50.00       294.0283        -0.0001        -0.0001        -0.0001       294.0283        -0.0001        -0.0001        -0.0001       294.0283
     60.00       233.8840        -0.0003        -0.0003        -0.0003       233.8840        -0.0003        -0.0003        -0.0003       233.8840
     70.00       196.3755        -0.0005        -0.0005        -0.0005       196.3755        -0.0005        -0.0005        -0.0005       196.3755
     80.00       172.1820        -0.0006        -0.0006        -0.0006       172.1820        -0.0006        -0.0006        -0.0006       172.1820
     90.00       155.3344        -0.0007        -0.0007        -0.0007       155.3344        -0.0007        -0.0007        -0.0007       155.3344
    100.00       142.4396        -0.0007        -0.0007        -0.0007       142.4396        -0.0007        -0.0007        -0.0007       142.4396
    110.00       131.7777        -0.0006        -0.0006        -0.0006       131.7777        -0.0006        -0.0006        -0.0006       131.7777
    120.00       122.5486        -0.0004        -0.0004        -0.0004       122.5486        -0.0004        -0.0004        -0.0004       122.5486
    130.00       114.3934        -0.0002        -0.0002        -0.0002       114.3934        -0.0002        -0.0002        -0.0002       114.3934
    140.00       107.1402         0.0001         0.0001         0.0001       107.1402         0.0001         0.0001         0.0001       107.1402
    150.00       100.6852         0.0003         0.0003         0.0003       100.6852         0.0003         0.0003         0.0003       100.6852
    160.00        94.9450         0.0006         0.0006         0.0006        94.9450         0.0006         0.0006         0.0006        94.9450
    170.00        89.8418         0.0009         0.0009         0.0009        89.8418         0.0009         0.0009         0.0009        89.8418
    180.00        85.3010         0.0011         0.0011         0.0011        85.3010         0.0011         0.0011         0.0011        85.3010
    190.00        81.2523         0.0013         0.0013         0.0013        81.2523         0.0013         0.0013         0.0013        81.2523
    200.00        77.6318         0.0014         0.0014         0.0014        77.6318         0.0014         0.0014         0.0014        77.6318
    210.00        74.3820         0.0016         0.0016         0.0016        74.3820         0.0016         0.0016         0.0016        74.3820
    220.00        71.4528         0.0017         0.0017         0.0017        71.4528         0.0017         0.0017         0.0017        71.4528
    230.00        68.8007         0.0018         0.0018         0.0018        68.8007         0.0018         0.0018         0.0018        68.8007
    240.00        66.3884         0.0019         0.0019         0.0019        66.3884         0.0019         0.0019         0.0019        66.3884
    250.00        64.1840         0.0019         0.0019         0.0019        64.1840         0.0019         0.0019         0.0019        64.1840
    260.00        62.1602         0.0020         0.0020         0.0020        62.1602         0.0020         0.0020         0.0020        62.1602
    270.00        60.2941         0.0020         0.0020         0.0020        60.2941         0.0020         0.0020         0.0020        60.2941
    280.00        58.5659         0.0020         0.0020         0.0020        58.5659         0.0020         0.0020         0.0020        58.5659
    290.00        56.9590         0.0020         0.0020         0.0020        56.9590         0.0020         0.0020         0.0020        56.9590
    300.00        55.4591         0.0021         0.0021         0.0021        55.4591         0.0021         0.0021         0.0021        55.4591
    310.00        54.0541         0.0021         0.0021         0.0021        54.0541         0.0021         0.0021         0.0021        54.0541
    320.00        52.7336         0.0021         0.0021         0.0021        52.7336         0.0021         0.0021         0.0021        52.7336
    330.00        51.4887         0.0021         0.0021         0.0021        51.4887         0.0021         0.0021         0.0021        51.4887
    340.00        50.3117         0.0021         0.0021         0.0021        50.3117         0.0021         0.0021         0.0021        50.3117
    350.00        49.1960         0.0021         0.0021         0.0021        49.1960         0.0021         0.0021         0.0021        49.1960
    360.00        48.1358         0.0020         0.0020         0.0020        48.1358         0.0020         0.0020         0.0020        48.1358
    370.00        47.1262         0.0020         0.0020         0.0020        47.1262         0.0020         0.0020         0.0020        47.1262
    380.00        46.1629         0.0020         0.0020         0.0020        46.1629         0.0020         0.0020         0.0020        46.1629
    390.00        45.2419         0.0020         0.0020         0.0020        45.2419         0.0020         0.0020         0.0020        45.2419
    400.00        44.3600         0.0020         0.0020         0.0020        44.3600         0.0020         0.0020         0.0020        44.3600
    410.00        43.5143         0.0020         0.0020         0.0020        43.5143         0.0020         0.0020         0.0020        43.5143
    420.00        42.7020         0.0020         0.0020         0.0020        42.7020         0.0020         0.0020         0.0020        42.7020
    430.00        41.9209         0.0020         0.0020         0.0020        41.9209         0.0020         0.0020         0.0020        41.9209
    440.00        41.1688         0.0019         0.0019         0.0019        41.1688         0.0019         0.0019         0.0019        41.1688
    450.00        40.4439         0.0019         0.0019         0.0019        40.4439         0.0019         0.0019         0.0019        40.4439
    460.00        39.7446         0.0019         0.0019         0.0019        39.7446         0.0019         0.0019         0.0019        39.7446
    470.00        39.0693         0.0019         0.0019         0.0019        39.0693         0.0019         0.0019         0.0019        39.0693
    480.00        38.4166         0.0019         0.0019         0.0019        38.4166         0.0019         0.0019         0.0019        38.4166
    490.00        37.7852         0.0019         0.0019         0.0019        37.7852         0.0019         0.0019         0.0019        37.7852
    500.00        37.1741         0.0019         0.0019         0.0019        37.1741         0.0019         0.0019         0.0019        37.1741
    510.00        36.5822         0.0018         0.0018         0.0018        36.5822         0.0018         0.0018         0.0018        36.5822
    520.00        36.0084         0.0018         0.0018         0.0018        36.0084         0.0018         0.0018         0.0018        36.0084
    530.00        35.4520         0.0018         0.0018         0.0018        35.4520         0.0018         0.0018         0.0018        35.4520
    540.00        34.9120         0.0018         0.0018         0.0018        34.9120         0.0018         0.0018         0.0018        34.9120
    550.00        34.3878         0.0018         0.0018         0.0018        34.3878         0.0018         0.0018         0.0018        34.3878
    560.00        33.8785         0.0018         0.0018         0.0018        33.8785         0.0018         0.0018         0.0018        33.8785
    570.00        33.3836         0.0017         0.0017         0.0017        33.3836         0.0017         0.0017         0.0017        33.3836
    580.00        32.9025         0.0017         0.0017         0.0017        32.9025         0.0017         0.0017         0.0017        32.9025
    590.00        32.4345         0.0017         0.0017         0.0017        32.4345         0.0017         0.0017         0.0017        32.4345
    600.00        31.9791         0.0017         0.0017         0.0017        31.9791         0.0017         0.0017         0.0017        31.9791
    610.00        31.5357         0.0017         0.0017         0.0017        31.5357         0.0017         0.0017         0.0017        31.5357
    620.00        31.1040         0.0017         0.0017         0.0017        31.1040         0.0017         0.0017         0.0017        31.1040
    630.00        30.6835         0.0017         0.0017         0.0017        30.6835         0.0017         0.0017         0.0017        30.6835
    640.00        30.2736         0.0016         0.0016         0.0016        30.2736         0.0016         0.0016         0.0016        30.2736
    650.00        29.8741         0.0016         0.0016         0.0016        29.8741         0.0016         0.0016         0.0016        29.8741
    660.00        29.4846         0.0016         0.0016         0.0016        29.4846         0.0016         0.0016         0.0016        29.4846
    670.00        29.1046         0.0016         0.0016         0.0016        29.1046         0.0016         0.0016         0.0016        29.1046
    680.00        28.7339         0.0016         0.0016         0.0016        28.7339         0.0016         0.0016         0.0016        28.7339
    690.00        28.3720         0.0016         0.0016         0.0016        28.3720         0.0016         0.0016         0.0016        28.3720
    700.00        28.0188         0.0016         0.0016         0.0016        28.0188         0.0016         0.0016         0.0016        28.0188
    710.00        27.6738         0.0015         0.0015         0.0015        27.6738         0.0015         0.0015         0.0015        27.6738
    720.00        27.3369         0.0015         0.0015         0.0015        27.3369         0.0015         0.0015         0.0015        27.3369
    730.00        27.0077         0.0015         0.0015         0.0015        27.0077         0.0015         0.0015         0.0015        27.0077
    740.00        26.6859         0.0015         0.0015         0.0015        26.6859         0.0015         0.0015         0.0015        26.6859
    750.00        26.3715         0.0015         0.0015         0.0015        26.3715         0.0015         0.0015         0.0015        26.3715
    760.00        26.0640         0.0015         0.0015         0.0015        26.0640         0.0015         0.0015         0.0015        26.0640
    770.00        25.7633         0.0015         0.0015         0.0015        25.7633         0.0015         0.0015         0.0015        25.7633
    780.00        25.4692         0.0015         0.0015         0.0015        25.4691         0.0015         0.0015         0.0015        25.4692
    790.00        25.1814         0.0014         0.0014         0.0014        25.1814         0.0014         0.0014         0.0014        25.1814
    800.00        24.8997         0.0014         0.0014         0.0014        24.8997         0.0014         0.0014         0.0014        24.8997
    810.00        24.6241         0.0014         0.0014         0.0014        24.6241         0.0014         0.0014         0.0014        24.6241
    820.00        24.3542         0.0014         0.0014         0.0014        24.3542         0.0014         0.0014         0.0014        24.3542
    830.00        24.0899         0.0014         0.0014         0.0014        24.0899         0.0014         0.0014         0.0014        24.0899
    840.00        23.8311         0.0014         0.0014         0.0014        23.8311         0.0014         0.0014         0.0014        23.8311
    850.00        23.5776         0.0014         0.0014         0.0014        23.5776         0.0014         0.0014         0.0014        23.5776
    860.00        23.3292         0.0014         0.0014         0.0014        23.3292         0.0014         0.0014         0.0014        23.3292
    870.00        23.0857         0.0013         0.0013         0.0013        23.0857         0.0013         0.0013         0.0013        23.0857
    880.00        22.8471         0.0013         0.0013         0.0013        22.8471         0.0013         0.0013         0.0013        22.8471
    890.00        22.6132         0.0013         0.0013         0.0013        22.6132         0.0013         0.0013         0.0013        22.6132
    900.00        22.3838         0.0013         0.0013         0.0013        22.3838         0.0013         0.0013         0.0013        22.3838
    910.00        22.1589         0.0013         0.0013         0.0013        22.1589         0.0013         0.0013         0.0013        22.1589
    920.00        21.9383         0.0013         0.0013         0.0013        21.9383         0.0013         0.0013         0.0013        21.9383
    930.00        21.7219         0.0013         0.0013         0.0013        21.7219         0.0013         0.0013         0.0013        21.7219
    940.00        21.5096         0.0013         0.0013         0.0013        21.5096         0.0013         0.0013         0.0013        21.5096
    950.00        21.3012         0.0013         0.0013         0.0013        21.3012         0.0013         0.0013         0.0013        21.3012
    960.00        21.0967         0.0013         0.0013         0.0013        21.0967         0.0013         0.0013         0.0013        21.0967
    970.00        20.8959         0.0012         0.0012         0.0012        20.8959         0.0012         0.0012         0.0012        20.8959
    980.00        20.6988         0.0012         0.0012         0.0012        20.6988         0.0012         0.0012         0.0012        20.6988
    990.00        20.5053         0.0012         0.0012         0.0012        20.5053         0.0012         0.0012         0.0012        20.5053
   1000.00        20.3152         0.0012         0.0012         0.0012        20.3152         0.0012         0.0012         0.0012        20.3152
