# k-axis, Phonon energy [meV], band-1, band-2, band-3, band-4, band-5, band-6, band-7
     1     0.000000   -4.008690    -4.008687     0.000000     0.000000     0.000000    11.843506    65.787817    66.457396   147.658692   147.658692   147.668487   147.668487 
     2     0.015873   -3.473026    -0.245415     1.999796     2.821800     4.906632    11.846212    65.772828    66.442370   147.660304   147.671090   147.700226   147.711012 
     3     0.031746   -0.487540    -0.233585     3.997633     8.942685     9.808786    11.854418    65.727861    66.397303   147.665263   147.678777   147.824825   147.838215 
     4     0.047619   -0.723024     4.461544     5.991555    11.868370    14.131389    14.701982    65.653001    66.322270   147.673942   147.691051   148.031872   148.048733 
     5     0.063492   -0.948391     6.909391     7.979608    11.888482    19.149430    19.581761    65.548362    66.217358   147.686464   147.707540   148.320374   148.341078 
     6     0.079365   -1.159962     9.129030     9.959840    11.915321    24.091062    24.443686    65.414067    66.082729   147.702953   147.728245   148.688346   148.713142 
     7     0.095238   -1.353750    11.250077    11.930309    11.949603    28.981999    29.283320    65.250327    65.918567   147.723286   147.752917   149.133434   149.162446 
     8     0.111111   -1.525320    11.992181    13.313344    13.889070    33.830286    34.096273    65.057377    65.725108   147.747462   147.781432   149.652787   149.686137 
     9     0.126984   -1.669582    12.044031    15.335669    15.834217    38.637710    38.878194    64.835477    65.502639   147.775109   147.813791   150.243055   150.280745 
    10     0.142857   -1.780469    12.106234    17.324816    17.763805    43.403290    43.624743    64.584939    65.251480   147.806352   147.849497   150.900273   150.942303 
    11     0.158730   -1.850388    12.179958    19.284420    19.675936    48.124746    48.331657    64.306120    64.972029   147.840819   147.888675   151.620473   151.666966 
    12     0.174603   -1.869227    12.266431    21.216003    21.568714    52.799115    52.994681    63.999393    64.664720   147.878509   147.930952   152.399068   152.449775 
    13     0.190475   -1.822327    12.366922    23.119914    23.440254    57.423060    57.609663    63.665168    64.330036   147.919050   147.976081   153.231221   153.286268 
    14     0.206348   -1.685592    12.482716    24.995806    25.288697    61.993013    62.172437    63.303903    63.968560   147.962195   148.024061   154.111727   154.171238 
    15     0.222221   -1.410068    12.615052    26.842897    27.112194    62.916081    63.580899    66.505327    66.678961   148.007944   148.074397   155.035502   155.099228 
    16     0.238094   -0.832118    12.765154    28.660134    28.908900    62.502186    63.167736    70.956308    71.125218   148.055800   148.127089   155.996967   156.065032 
    17     0.253967    1.057560    12.934164    30.446265    30.677028    62.062776    62.729838    75.342224    75.507279   148.105640   148.181640   156.990543   157.062699 
    18     0.269840    1.875657    13.123072    32.199974    32.414769    61.598409    62.268050    79.659394    79.821262   148.157216   148.237927   158.010402   158.086774 
    19     0.285713    2.565445    13.332797    33.919800    34.120350    61.109680    61.783276    83.904147    84.063374   148.210279   148.295701   159.050966   159.131430 
    20     0.301586    3.222441    13.564032    35.604266    35.792047    60.597221    61.276507    88.072863    88.229896   148.264459   148.354592   160.106284   160.190839 
    21     0.317459    3.873128    13.817348    37.251886    37.428111    60.061702    60.748836    92.161996    92.317182   148.319506   148.414474   161.170653   161.259298 
    22     0.333332    4.528422    14.093079    38.861134    39.026883    59.503854    60.201378    96.168038    96.321661   148.375173   148.474853   162.238244   162.330857 
    23     0.349205    5.193540    14.391350    40.430473    40.586676    58.924458    59.635397   100.087566   100.239851   148.431336   148.535603   163.303604   163.399937 
    24     0.365078    5.871058    14.712074    41.958390    42.105852    58.324358    59.052182   103.917222   104.068341   148.487499   148.596477   164.360906   164.461082 
    25     0.380951    6.562145    15.054929    43.443373    43.582826    57.704507    58.453123   107.653718   107.803784   148.543538   148.657227   165.404694   165.508589 
    26     0.396824    7.267117    15.419368    44.883934    45.016010    57.065961    57.839658   111.293833   111.442932   148.599205   148.717357   166.429884   166.537251 
    27     0.412697    7.985735    15.804574    46.278610    46.403879    56.409883    57.213311   114.834392   114.982585   148.654252   148.776868   167.431147   167.541985 
    28     0.428570    8.717355    16.209517    47.625962    47.744934    55.737589    56.575682   118.272333   118.419609   148.708431   148.835510   168.403522   168.517707 
    29     0.444443    9.461018    16.632934    48.924566    49.037698    55.050567    55.928457   121.604580   121.750914   148.761494   148.892789   169.342298   169.459831 
    30     0.460316   10.215492    17.073273    50.173045    50.280771    54.350464    55.273421   124.828147   124.973452   148.813318   148.948828   170.243137   170.363646 
    31     0.476189   10.979299    17.528788    51.370072    51.472777    53.639154    54.612471   127.940045   128.084234   148.863530   149.003255   171.101575   171.225059 
    32     0.492062   11.750717    17.997383    52.514333    52.612376    52.918706    53.947665   130.937262   131.080335   148.912130   149.055823   171.913891   172.040103 
    33     0.507935   12.527770    18.476764    52.191464    53.281223    53.604576    53.698280   133.816945   133.958530   148.958870   149.106531   172.676492   172.805184 
    34     0.523808   13.308199    18.964266    51.460031    52.615562    54.639585    54.729272   136.575872   136.715846   149.003627   149.155007   173.386030   173.517077 
    35     0.539680   14.089447    19.456913    50.727372    51.953360    55.618184    55.704140   139.210943   139.349057   149.046276   149.201127   174.039901   174.173055 
    36     0.555553   14.868624    19.951370    49.996795    51.297568    56.539281    56.621778   141.718934   141.854816   149.086570   149.244892   174.635748   174.770763 
    37     0.571426   15.642420    20.443893    49.272070    50.651459    57.401798    57.481095   144.096251   144.229529   149.124508   149.286178   175.171838   175.308464 
    38     0.587299   16.407054    20.930291    48.557436    50.018714    58.204754    58.281101   146.339173   146.469352   149.159966   149.324612   175.647177   175.785043 
    39     0.603172   17.158187    21.405878    47.857743    49.403439    58.947171    59.020840   148.443610   148.569945   149.192945   149.360442   176.061394   176.200252 
    40     0.619045   17.890860    21.865510    47.178469    48.810195    59.628206    59.699408   149.223072   149.393296   150.404725   150.526722   176.415109   176.554463 
    41     0.634918   18.599331    22.303531    46.525838    48.244077    60.247015    60.315997   149.250595   149.423300   152.217189   152.334226   176.709686   176.849039 
    42     0.650791   19.276956    22.713867    45.906843    47.710727    60.802879    60.869865   149.275391   149.450203   153.875173   153.986260   176.947727   177.086833 
    43     0.666664   19.916085    23.090184    45.329220    47.216308    61.295092    61.360330   149.297336   149.474131   155.371612   155.475631   177.133202   177.271439 
    44     0.682537   20.507867    23.426120    44.801487    46.767413    61.723071    61.786784   149.316429   149.494960   156.698570   156.794654   177.271315   177.408189 
    45     0.698410   21.042196    23.715812    44.332644    46.370975    62.086283    62.148707   149.332670   149.512565   157.847369   157.934403   177.368268   177.503530 
    46     0.714283   21.507554    23.954449    43.931953    46.033972    62.384281    62.445639   149.345936   149.527071   158.808214   158.885453   177.431745   177.564776 
    47     0.730156   21.891211    24.139005    43.608428    45.763113    62.616682    62.677209   149.356350   149.538477   159.571187   159.638136   177.469435   177.600482 
    48     0.746029   22.179700    24.268812    43.370163    45.564386    62.783199    62.843144   149.363665   149.546536   160.126493   160.183772   177.489396   177.618707 
    49     0.761902   22.360177    24.345395    43.223705    45.442526    62.883635    62.943208   149.368252   149.551495   160.465578   160.515418   177.498447   177.626270 
    50     0.777775   22.422948    24.371083    43.173307    45.400658    62.917879    62.977327   149.369740   149.553107   160.581872   160.628736   177.500802   177.628254 
    51     0.777775   22.422948    24.371083    43.173307    45.400658    62.917879    62.977327   149.369740   149.553107   160.581872   160.628736   177.500802   177.628254 
    52     0.786930   22.427932    24.375038    43.169018    45.395289    62.973918    63.033267   149.376931   149.560174   160.571209   160.618074   177.497455   177.624906 
    53     0.796085   22.443008    24.386953    43.156149    45.379172    63.141762    63.200789   149.398256   149.581498   160.539470   160.586335   177.487164   177.614492 
    54     0.805240   22.468114    24.406802    43.134700    45.352318    63.420159    63.478677   149.433714   149.616832   160.486407   160.533395   177.470179   177.597259 
    55     0.814395   22.503238    24.434611    43.104685    45.314727    63.807162    63.864962   149.482934   149.665804   160.412391   160.459379   177.446499   177.573207 
    56     0.823550   22.548379    24.470367    43.066114    45.266437    64.300045    64.356939   149.545668   149.728166   160.317298   160.364411   177.416372   177.542707 
    57     0.832705   22.603500    24.514082    43.019014    45.207460    64.895471    64.951287   149.621296   149.803422   160.201377   160.248613   177.379922   177.505885 
    58     0.841860   22.668590    24.565769    42.963397    45.137820    65.589487    65.644087   149.709321   149.890952   160.064627   160.112111   177.337645   177.463112 
    59     0.851015   22.743598    24.625428    42.899312    45.057543    66.377702    66.430914   149.809001   149.990012   159.907420   159.955029   177.289664   177.414512 
    60     0.860171   22.828512    24.693059    42.826783    44.966691    67.255257    67.306981   149.919468   150.099858   159.729881   159.777737   177.236477   177.360581 
    61     0.869326   22.923257    24.768700    42.745837    44.865287    68.217019    68.267132   150.039976   150.219623   159.532257   159.580237   177.178454   177.301690 
    62     0.878481   23.027810    24.852324    42.656522    44.753383    69.257596    69.306023   150.169411   150.348190   159.314796   159.363024   177.116092   177.238337 
    63     0.887636   23.142119    24.943970    42.558900    44.631039    70.371445    70.418111   150.306657   150.484568   159.077870   159.126470   177.049887   177.171139 
    64     0.896791   23.266112    25.043638    42.452984    44.498306    71.552937    71.597781   150.450598   150.627393   158.821851   158.870700   176.980582   177.100595 
    65     0.905946   23.399750    25.151327    42.338872    44.355246    72.796407    72.839378   150.599994   150.775673   158.547112   158.596208   176.908550   177.027323 
    66     0.915101   23.542947    25.267062    42.216591    44.201932    74.096201    74.137275   150.753357   150.927797   158.254147   158.303615   176.834782   176.951943 
    67     0.924256   23.695640    25.390819    42.086214    44.038427    75.446715    75.485892   150.909324   151.082400   157.943329   157.993169   176.759650   176.875323 
    68     0.933411   23.857757    25.522634    41.947802    43.864818    76.842457    76.879725   151.066407   151.237871   157.615402   157.665738   176.684146   176.797960 
    69     0.942566   24.029208    25.662484    41.801444    43.681179    78.277996    78.313356   151.223117   151.392846   157.270986   157.321569   176.608890   176.720844 
    70     0.951721   24.209922    25.810367    41.647200    43.487609    79.748052    79.781527   151.377596   151.545465   156.910576   156.961656   176.534874   176.644720 
    71     0.960876   24.399797    25.966297    41.485159    43.284195    81.247441    81.279069   151.528356   151.694241   156.535164   156.586616   176.462718   176.570332 
    72     0.970032   24.598748    26.130248    41.315405    43.071049    82.771118    82.800923   151.673661   151.837438   156.145495   156.197319   176.393537   176.498672 
    73     0.979187   24.806662    26.302221    41.138015    42.848257    84.314149    84.342181   151.811650   151.973196   155.742560   155.794880   176.327827   176.430359 
    74     0.988342   25.023429    26.482202    40.953111    42.615931    85.871685    85.897981   151.940837   152.100028   155.327475   155.380167   176.266705   176.366385 
    75     0.997497   25.248961    26.670144    40.760756    42.374182    87.438965    87.463600   152.059238   152.215825   154.901480   154.954543   176.210666   176.307371 
    76     1.006652   25.483134    26.866057    40.561074    42.123147    89.011317    89.034328   152.165117   152.319224   154.465938   154.519250   176.160702   176.254183 
    77     1.015807   25.725813    27.069880    40.354176    41.862938    90.584065    90.605539   152.256739   152.408366   154.022710   154.076021   176.117433   176.207443 
    78     1.024962   25.976885    27.281588    40.140162    41.593703    92.152586    92.172584   152.331870   152.481142   153.574150   153.626841   176.081355   176.167769 
    79     1.034117   26.236201    27.501144    39.919155    41.315579    93.712217    93.730802   152.386546   152.534206   153.124970   153.175058   176.052964   176.135534 
    80     1.043272   26.503626    27.728487    39.691267    41.028701    95.258235    95.275493   152.401051   152.541521   152.705174   152.738277   176.032631   176.111358 
    81     1.052427   26.779023    27.963565    39.456647    40.733232    96.785830    96.801836   152.155199   152.230331   152.506930   152.619132   176.020605   176.095241 
    82     1.061582   27.062206    28.206318    39.215420    40.429332    98.290079    98.304920   151.717549   151.784747   152.487961   152.610701   176.017134   176.087554 
    83     1.070737   27.353026    28.456658    38.967720    40.117200    99.765863    99.779612   151.270230   151.336187   152.464777   152.586897   176.021969   176.088050 
    84     1.079892   27.651297    28.714512    38.713697    39.797010   101.207850   101.220582   150.828489   150.894446   152.422996   152.542388   176.034987   176.096605 
    85     1.089048   27.956821    28.979779    38.453513    39.468959   102.610435   102.622251   150.397782   150.464112   152.359890   152.476059   176.055691   176.112970 
    86     1.098203   28.269374    29.252350    38.187353    39.133295   103.967756   103.978703   149.982573   150.049647   152.274716   152.387165   176.083711   176.136402 
    87     1.107358   28.588709    29.532098    37.915365    38.790255   105.273588   105.283754   149.587697   149.655638   152.166853   152.275583   176.118177   176.166405 
    88     1.116513   28.914554    29.818876    37.637774    38.440135   106.521372   106.530832   149.218361   149.287294   152.036302   152.141189   176.158223   176.202112 
    89     1.125668   29.246572    30.112523    37.354802    38.083259   107.704253   107.713043   148.879895   148.949820   151.883063   151.984230   176.203104   176.242529 
    90     1.134823   29.584380    30.412815    37.066697    37.720060   108.815052   108.823222   148.578128   148.649168   151.707507   151.804831   176.251332   176.286542 
    91     1.143978   29.927470    30.719504    36.773770    37.351033   109.846404   109.853979   148.319134   148.391290   151.510007   151.603612   176.302040   176.332911 
    92     1.153133   30.275172    31.032244    36.476404    36.976849   110.790933   110.797913   148.109236   148.182508   151.291058   151.380944   176.353615   176.380519 
    93     1.162288   30.626544    31.350550    36.175120    36.598462   111.641386   111.647747   147.954385   148.028897   151.051281   151.137571   176.404943   176.427879 
    94     1.171443   30.980222    31.673741    35.870662    36.217273   112.390932   112.396648   147.860656   147.936283   150.791419   150.874238   176.454411   176.473504 
    95     1.180598   31.333949    32.000639    35.564209    35.835514   113.033533   113.038529   147.832760   147.909752   150.512340   150.591687   176.500656   176.516153 
    96     1.189753   31.683858    32.329198    35.257842    35.457115   113.564205   113.568408   147.874789   147.953269   150.215160   150.290664   176.542189   176.554215 
    97     1.198909   32.022459    32.655117    34.955851    35.089588   113.979401   113.982724   147.988851   148.069314   149.900995   149.972407   176.577399   176.586202 
    98     1.208064   32.333860    32.967931    34.668651    34.748928   114.277251   114.279582   148.175069   148.258755   149.572076   149.638033   176.604923   176.610626 
    99     1.217219   32.581894    33.236558    34.427188    34.471486   114.457691   114.458944   148.426624   148.518989   149.235222   149.290269   176.623272   176.626123 
   100     1.226374   32.693861    33.368994    34.322512    34.330942   114.522409   114.522570   148.663550   148.801788   148.968913   148.975856   176.631083   176.631454 
   101     1.226374   32.693861    33.368994    34.322512    34.330942   114.522409   114.522570   148.663550   148.801788   148.968913   148.975856   176.631083   176.631454 
   102     1.244684   32.277040    32.961596    34.677181    34.803864   114.275466   114.278156   147.976949   148.055428   149.768956   149.831938   176.599592   176.604675 
   103     1.262994   31.508897    32.319875    35.381561    35.518844   113.627844   113.633100   147.153846   147.225382   150.870518   150.937095   176.509830   176.518757 
   104     1.281304   30.640826    31.629629    36.184356    36.290223   112.633636   112.641322   146.281150   146.349587   152.135238   152.202311   176.352375   176.364526 
   105     1.299614   29.729263    30.918058    37.029243    37.090898   111.347591   111.357447   145.366674   145.433747   153.503233   153.569811   176.119169   176.133799 
   106     1.317924   28.791070    30.193197    37.899459    37.912935   109.819190   109.830844   144.415375   144.482077   154.923176   154.989010   175.803144   175.819633 
   107     1.336235   27.833622    29.459024    38.752441    38.787751   108.090314   108.103369   143.430726   143.497799   156.352046   156.417011   175.398473   175.416202 
   108     1.354545   26.861197    28.718281    39.606738    39.689965   106.195218   106.209252   142.414834   142.483147   157.755623   157.819473   174.900942   174.919291 
   109     1.372855   25.876858    27.973223    40.473631    40.603115   104.161425   104.176030   141.369063   141.439236   159.106757   159.169739   174.307573   174.326046 
   110     1.391165   24.883108    27.225934    41.351099    41.524820   102.011066   102.025845   140.293288   140.366065   160.384743   160.446609   173.616757   173.634734 
   111     1.409475   23.882205    26.478396    42.237246    42.452946    99.761995    99.776538   139.186271   139.262147   161.573588   161.634338   172.828616   172.845849 
   112     1.427785   22.876219    25.732570    43.130187    43.385499    97.428766    97.442689   138.045283   138.124754   162.661140   162.720527   171.945134   171.961004 
   113     1.446095   21.867158    24.990376    44.028050    44.320606    95.023454    95.036361   136.866109   136.949672   163.638350   163.696125   170.969660   170.984041 
   114     1.464406   20.856932    24.253773    44.929013    45.256419    92.556203    92.567708   135.642675   135.730700   164.498648   164.554439   169.907771   169.920665 
   115     1.482716   19.847450    23.524684    45.831215    46.191142    90.035677    90.045385   134.367168   134.460277   165.237568   165.290508   168.767155   168.778933 
   116     1.501026   18.840546    22.805055    46.732848    47.123000    87.469427    87.476928   133.030168   133.128484   165.852385   165.898382   167.557234   167.571492 
   117     1.519336   17.838056    22.096819    47.632075    48.050247    84.864087    84.868972   131.619648   131.723667   166.199653   166.289415   166.341982   166.487287 
   118     1.537646   16.841753    21.401899    48.527099    48.971158    82.225594    82.227441   130.122465   130.232187   164.965432   164.978946   166.705120   166.768845 
   119     1.555956   15.853409    20.722228    49.416110    49.884022    79.557693    79.559342   128.522999   128.638672   163.627688   163.640086   166.943781   167.001308 
   120     1.574266   14.874711    20.059691    50.297335    50.787167    76.864637    76.870253   126.805008   126.926385   162.276058   162.290440   167.059579   167.113882 
   121     1.592576   13.907333    19.416136    51.169026    51.678918    74.152785    74.162865   124.950887   125.077843   160.931247   160.948232   167.055363   167.106939 
   122     1.610887   12.952872    18.793372    52.029422    52.557639    71.426353    71.441417   122.943639   123.075851   159.611852   159.631441   166.934607   166.983827 
   123     1.629197   12.012866    18.193148    52.876838    53.421717    68.689284    68.709890   120.766885   120.903870   158.335478   158.357298   166.701772   166.748513 
   124     1.647507   11.088777    17.617099    53.709562    54.269567    65.945284    65.972014   118.406293   118.547469   157.117870   157.141550   166.361819   166.406204 
   125     1.665817   10.181952    17.066764    54.525982    55.099650    63.197826    63.231337   115.850259   115.995006   155.972171   155.996967   165.920450   165.962480 
   126     1.684127    9.293607    16.543544    55.324451    55.910455    60.450243    60.491206   113.090502   113.238162   154.907927   154.933219   165.384237   165.423786 
   127     1.702437    8.424783    16.048690    56.103430    56.700468    57.705623    57.754806   110.122346   110.272300   153.931708   153.956876   164.759874   164.796944 
   128     1.720747    7.576285    15.583232    54.966930    55.025151    56.861344    57.468288   106.944578   107.096292   153.046367   153.070791   164.055171   164.089638 
   129     1.739058    6.748577    15.148013    52.236952    52.305104    57.596732    58.212478   103.559155   103.712196   152.251903   152.275088   163.278065   163.309927 
   130     1.757368    5.941616    14.743602    49.518257    49.597356    58.308154    58.931711    99.970628   100.124723   151.545961   151.567534   162.437108   162.466368 
   131     1.775678    5.154554    14.370311    46.813261    46.904424    58.994197    59.624660    96.185581    96.340581   150.924201   150.943790   161.541601   161.568132 
   132     1.793988    4.385165    14.028163    44.124172    44.228662    59.653523    60.290061    92.212059    92.367989   150.381293   150.398650   160.600964   160.624769 
   133     1.812298    3.628631    13.716862    41.452936    41.572217    60.284853    60.926698    88.059113    88.216146   149.910913   149.925791   159.624994   159.646070 
   134     1.830608    2.874486    13.435837    38.801289    38.937022    60.886962    61.533419    83.736390    83.894861   149.506490   149.519012   158.624103   158.642452 
   135     1.848918    2.097004    13.184194    36.170619    36.324776    61.458659    62.109120    79.253868    79.414286   149.161578   149.171744   157.608831   157.624453 
   136     1.867228    1.205067    12.960770    33.562006    33.736917    61.998840    62.652747    74.621665    74.784724   148.869605   148.877416   156.589963   156.602857 
   137     1.885539   -0.831026    12.764175    30.976093    31.174585    62.506463    63.163310    69.849873    70.016540   148.624496   148.629952   155.578287   155.588577 
   138     1.903849   -1.464889    12.592760    28.413055    28.638599    62.980526    63.639876    64.948498    65.120011   148.420425   148.423773   154.585083   154.592770 
   139     1.922159   -1.739245    12.444765    25.872419    26.129405    59.927419    60.105368    63.420122    64.081580   148.252061   148.253300   153.621014   153.626222 
   140     1.940469   -1.853208    12.318264    23.352972    23.647077    54.796234    54.982762    63.824396    64.487627   148.113823   148.114443   152.696991   152.699843 
   141     1.958779   -1.864135    12.211316    20.852506    21.191244    49.564266    49.762237    64.192554    64.857261   148.000877   148.003233   151.823552   151.824296 
   142     1.977089   -1.800295    12.121960    18.367327    18.761112    44.240391    44.453785    64.523903    65.189812   147.910372   147.914339   151.009500   151.010863 
   143     1.995399   -1.679088    12.048286    15.891583    16.355404    38.832792    39.067301    64.817785    65.484686   147.838835   147.844042   150.265248   150.268471 
   144     2.013710   -1.512720    11.988494    13.415578    13.972385    33.348426    33.612639    65.073643    65.741337   147.783044   147.789491   149.600343   149.605302 
   145     2.032020   -1.310544    10.921985    11.609865    11.940929    27.791865    28.099608    65.290992    65.959306   147.740271   147.747710   149.022968   149.029415 
   146     2.050330   -1.080214     8.374954     9.265187    11.904124    22.162256    22.537977    65.469387    66.138185   147.708408   147.716715   148.540314   148.548001 
   147     2.068640   -0.828310     5.677598     6.935302    11.876838    16.443864    16.937503    65.608493    66.277650   147.685472   147.694522   148.158456   148.167010 
   148     2.086950   -0.560719     2.310309     4.616761    10.564957    11.307915    11.858075    65.708049    66.377441   147.670222   147.679645   147.882104   147.891279 
   149     2.105260   -3.275410    -0.282889     2.304729     3.989359     5.658934    11.847111    65.767869    66.437398   147.661420   147.671090   147.714855   147.724526 
   150     2.123570   -4.008690    -4.008687     0.000000     0.000000     0.000000    11.843506    65.787817    66.457396   147.658692   147.658692   147.668487   147.668487 
   151     2.123570   -4.008690    -4.008687     0.000000     0.000000     0.000000    11.843506    65.787817    66.457396   147.658692   147.658692   147.668487   147.668487 
   152     2.127917   -4.008174    -4.008173    -0.064229    -0.064229     0.191130    11.842008    65.787979    66.457223   147.658692   147.658692   147.668487   147.668487 
   153     2.132263   -4.006631    -4.006629    -0.128442    -0.128442     0.382208    11.837517    65.788487    66.456689   147.658692   147.658692   147.668487   147.668487 
   154     2.136610   -4.004059    -4.004057    -0.192622    -0.192621     0.573184    11.830033    65.789330    66.455822   147.658692   147.658692   147.668487   147.668487 
   155     2.140956   -4.000459    -4.000456    -0.256752    -0.256752     0.764008    11.819558    65.790508    66.454594   147.658692   147.658816   147.668363   147.668487 
   156     2.145303   -3.995831    -3.995830    -0.320816    -0.320816     0.954627    11.806093    65.792020    66.453032   147.658692   147.658816   147.668363   147.668487 
   157     2.149650   -3.990179    -3.990176    -0.384798    -0.384798     1.144991    11.789643    65.793868    66.451110   147.658692   147.658816   147.668363   147.668487 
   158     2.153996   -3.983500    -3.983498    -0.448681    -0.448681     1.335050    11.770209    65.796050    66.448854   147.658816   147.658816   147.668363   147.668363 
   159     2.158343   -3.975799    -3.975798    -0.512449    -0.512449     1.524752    11.747798    65.798554    66.446263   147.658816   147.658816   147.668363   147.668363 
   160     2.162689   -3.967079    -3.967077    -0.576086    -0.576085     1.714047    11.722413    65.801381    66.443324   147.658816   147.658940   147.668239   147.668363 
   161     2.167036   -3.957339    -3.957337    -0.639574    -0.639574     1.902885    11.694060    65.804542    66.440051   147.658940   147.658940   147.668239   147.668239 
   162     2.171382   -3.946583    -3.946582    -0.702898    -0.702898     2.091214    11.662745    65.808026    66.436456   147.658940   147.659064   147.668115   147.668239 
   163     2.175729   -3.934814    -3.934813    -0.766042    -0.766042     2.278985    11.628477    65.811820    66.432526   147.659064   147.659064   147.668115   147.668115 
   164     2.180075   -3.922035    -3.922034    -0.828989    -0.828989     2.466151    11.591261    65.815924    66.428273   147.659064   147.659188   147.667991   147.668115 
   165     2.184422   -3.908250    -3.908248    -0.891724    -0.891723     2.652656    11.551105    65.820350    66.423698   147.659188   147.659188   147.667991   147.667991 
   166     2.188768   -3.893460    -3.893458    -0.954229    -0.954229     2.838456    11.508021    65.825073    66.418814   147.659188   147.659312   147.667867   147.667991 
   167     2.193115   -3.877672    -3.877669    -1.016490    -1.016489     3.023499    11.462015    65.830095    66.413619   147.659312   147.659312   147.667867   147.667867 
   168     2.197462   -3.860886    -3.860885    -1.078489    -1.078489     3.207737    11.413099    65.835426    66.408126   147.659312   147.659436   147.667743   147.667867 
   169     2.201808   -3.843111    -3.843108    -1.140212    -1.140211     3.391121    11.361284    65.841042    66.402337   147.659436   147.659560   147.667619   147.667743 
   170     2.206155   -3.824348    -3.824347    -1.201641    -1.201641     3.573602    11.306581    65.846943    66.396249   147.659560   147.659560   147.667619   147.667619 
   171     2.210501   -3.804604    -3.804602    -1.262762    -1.262762     3.755132    11.249002    65.853118    66.389877   147.659560   147.659684   147.667495   147.667619 
   172     2.214848   -3.783883    -3.783881    -1.323560    -1.323560     3.935663    11.188560    65.859577    66.383231   147.659684   147.659808   147.667371   147.667495 
   173     2.219194   -3.762190    -3.762188    -1.384017    -1.384016     4.115149    11.125270    65.866297    66.376326   147.659808   147.659932   147.667247   147.667371 
   174     2.223541   -3.739532    -3.739529    -1.444119    -1.444119     4.293541    11.059145    65.873277    66.369135   147.659932   147.659932   147.667247   147.667247 
   175     2.227887   -3.715914    -3.715911    -1.503850    -1.503850     4.470793    10.990200    65.880517    66.361708   147.660056   147.660056   147.667123   147.667123 
   176     2.232234   -3.691341    -3.691338    -1.563196    -1.563194     4.646858    10.918450    65.887993    66.354022   147.660180   147.660180   147.666999   147.666999 
   177     2.236580   -3.665821    -3.665818    -1.622139    -1.622138     4.821691    10.843912    65.895717    66.346099   147.660304   147.660304   147.666875   147.666875 
   178     2.240927   -3.639359    -3.639357    -1.680667    -1.680667     4.995245    10.766604    65.903677    66.337954   147.660428   147.660428   147.666751   147.666751 
   179     2.245273   -3.611963    -3.611961    -1.738762    -1.738762     5.167475    10.686542    65.911859    66.329573   147.660552   147.660552   147.666627   147.666627 
   180     2.249620   -3.583639    -3.583638    -1.796412    -1.796412     5.338337    10.603745    65.920253    66.320993   147.660676   147.660676   147.666503   147.666503 
   181     2.253967   -3.554396    -3.554395    -1.853600    -1.853600     5.507785    10.518233    65.928857    66.312203   147.660800   147.660800   147.666379   147.666379 
   182     2.258313   -3.524241    -3.524239    -1.910314    -1.910312     5.675778    10.430023    65.937660    66.303215   147.660924   147.660924   147.666255   147.666255 
   183     2.262660   -3.493181    -3.493179    -1.966535    -1.966534     5.842270    10.339139    65.946648    66.294040   147.661048   147.661048   147.666131   147.666131 
   184     2.267006   -3.461223    -3.461222    -2.022251    -2.022251     6.007218    10.245599    65.955823    66.284692   147.661172   147.661172   147.666007   147.666007 
   185     2.271353   -3.428377    -3.428376    -2.077450    -2.077449     6.170581    10.149428    65.965171    66.275183   147.661296   147.661296   147.665883   147.665883 
   186     2.275699   -3.394651    -3.394649    -2.132115    -2.132114     6.332316    10.050646    65.974680    66.265512   147.661420   147.661544   147.665635   147.665759 
   187     2.280046   -3.360054    -3.360051    -2.186231    -2.186231     6.492381     9.949276    65.984350    66.255693   147.661544   147.661668   147.665511   147.665635 
   188     2.284392   -3.324593    -3.324592    -2.239788    -2.239787     6.650737     9.845342    65.994157    66.245750   147.661668   147.661792   147.665387   147.665511 
   189     2.288739   -3.288279    -3.288278    -2.292768    -2.292767     6.807343     9.738871    66.004100    66.235670   147.661916   147.661916   147.665263   147.665263 
   190     2.293085   -3.251121    -3.251120    -2.345161    -2.345160     6.962158     9.629886    66.014155    66.225479   147.662040   147.662040   147.665139   147.665139 
   191     2.297432   -3.213128    -3.213126    -2.396950    -2.396950     7.115142     9.518413    66.024346    66.215189   147.662164   147.662164   147.665015   147.665015 
   192     2.301778   -3.174311    -3.174310    -2.448125    -2.448124     7.266258     9.404481    66.034624    66.204799   147.662288   147.662412   147.664767   147.664891 
   193     2.306125   -3.134678    -3.134677    -2.498672    -2.498671     7.415468     9.288113    66.045001    66.194335   147.662412   147.662536   147.664643   147.664767 
   194     2.310472   -3.094241    -3.094238    -2.548576    -2.548575     7.562733     9.169340    66.055453    66.183797   147.662660   147.662660   147.664519   147.664519 
   195     2.314818   -3.053009    -3.053008    -2.597826    -2.597825     7.708018     9.048189    66.065991    66.173197   147.662784   147.662784   147.664395   147.664395 
   196     2.319165   -3.010993    -3.010992    -2.646410    -2.646409     7.851284     8.924692    66.076579    66.162547   147.662908   147.663032   147.664147   147.664271 
   197     2.323511   -2.968204    -2.968203    -2.694314    -2.694312     7.992497     8.798877    66.087217    66.151872   147.663032   147.663156   147.664023   147.664147 
   198     2.327858   -2.924653    -2.924652    -2.741526    -2.741525     8.131623     8.670774    66.097904    66.141148   147.663280   147.663280   147.663899   147.663899 
   199     2.332204   -2.880352    -2.880350    -2.788035    -2.788034     8.268624     8.540416    66.108616    66.130424   147.663403   147.663403   147.663775   147.663775 
   200     2.336551   -2.834570    -2.834568    -2.834568    -2.834567     8.405649     8.405652    66.119513    66.119513   147.663527   147.663527   147.663651   147.663651 
