# k-axis, Phonon energy [meV], band-1, band-2, band-3, band-4, band-5, band-6, band-7
     1     0.000000    0.000000     0.000000     0.000000    66.177486    66.177486    66.177486 
     2     0.012562    0.787124     0.787124     1.382965    66.171052    66.172329    66.172329 
     3     0.025123    1.572061     1.572061     2.764856    66.151761    66.156931    66.156931 
     4     0.037685    2.352631     2.352631     4.144598    66.119625    66.131416    66.131416 
     5     0.050246    3.126658     3.126658     5.521127    66.074707    66.096032    66.096032 
     6     0.062808    3.891979     3.891979     6.893381    66.017044    66.051101    66.051101 
     7     0.075370    4.646447     4.646447     8.260315    65.946735    65.997058    65.997058 
     8     0.087931    5.387934     5.387934     9.620894    65.863854    65.934411    65.934411 
     9     0.100493    6.114343     6.114343    10.974098    65.768526    65.863755    65.863755 
    10     0.113055    6.823606     6.823606    12.318929    65.660837    65.785747    65.785747 
    11     0.125616    7.513696     7.513696    13.654413    65.540936    65.701155    65.701155 
    12     0.138178    8.182635     8.182635    14.979574    65.408947    65.610774    65.610774 
    13     0.150739    8.828504     8.828504    16.293514    65.265031    65.515495    65.515495 
    14     0.163301    9.449452     9.449452    17.595316    65.109324    65.416237    65.416237 
    15     0.175863   10.043707    10.043707    18.884100    64.941976    65.313941    65.313941 
    16     0.188424   10.609592    10.609592    20.159049    64.763160    65.209624    65.209624 
    17     0.200986   11.145539    11.145539    21.419343    64.573012    65.104266    65.104266 
    18     0.213548   11.650102    11.650102    22.664213    64.371693    64.998908    64.998908 
    19     0.226109   12.121976    12.121976    23.892942    64.159328    64.894517    64.894517 
    20     0.238671   12.560017    12.560017    25.104847    63.936089    64.792084    64.792084 
    21     0.251232   12.963237    12.963237    26.299258    63.702077    64.692541    64.692541 
    22     0.263794   13.330863    13.330863    27.475580    63.457402    64.596766    64.596766 
    23     0.276356   13.662336    13.662336    28.633243    63.202190    64.505542    64.505542 
    24     0.288917   13.957309    13.957309    29.771751    62.936513    64.419611    64.419611 
    25     0.301479   14.215671    14.215671    30.890621    62.660434    64.339595    64.339595 
    26     0.314041   14.437595    14.437595    31.989419    62.373991    64.266000    64.266000 
    27     0.326602   14.623515    14.623515    33.067772    62.077220    64.199249    64.199249 
    28     0.339164   14.774114    14.774114    34.125371    61.770109    64.139590    64.139590 
    29     0.351725   14.890420    14.890420    35.161893    61.452633    64.087208    64.087208 
    30     0.364287   14.973697    14.973697    36.177141    61.124756    64.042117    64.042117 
    31     0.376849   15.025533    15.025533    37.170903    60.786377    64.004229    64.004229 
    32     0.389410   15.047787    15.047787    38.143055    60.437398    63.973333    63.973333 
    33     0.401972   15.042593    15.042593    39.093498    60.077683    63.949120    63.949120 
    34     0.414533   15.012366    15.012366    40.022170    59.707057    63.931155    63.931155 
    35     0.427095   14.959762    14.959762    40.929083    59.325335    63.918943    63.918943 
    36     0.439657   14.887655    14.887655    41.814276    58.932294    63.911926    63.911926 
    37     0.452218   14.799158    14.799158    42.677821    58.527685    63.909471    63.909471 
    38     0.464780   14.697531    14.697531    43.519869    58.111224    63.910884    63.910884 
    39     0.477342   14.586173    14.586173    44.340554    57.682612    63.915509    63.915509 
    40     0.489903   14.468578    14.468578    45.140089    57.241529    63.922625    63.922625 
    41     0.502465   14.348280    14.348280    45.918708    56.787601    63.931539    63.931539 
    42     0.515026   14.228825    14.228825    46.676685    56.320469    63.941582    63.941582 
    43     0.527588   14.113635    14.113635    47.414316    55.839749    63.952107    63.952107 
    44     0.540150   14.006033    14.006033    48.131925    55.345019    63.962534    63.962534 
    45     0.552711   13.909081    13.909081    48.829883    54.835870    63.972316    63.972316 
    46     0.565273   13.825543    13.825543    49.508561    54.311844    63.981007    63.981007 
    47     0.577835   13.757850    13.757850    50.168358    53.772519    63.988186    63.988186 
    48     0.590396   13.707935    13.707935    50.809670    53.217423    63.993554    63.993554 
    49     0.602958   13.677263    13.677263    51.432954    52.646111    63.996889    63.996889 
    50     0.615519   13.666712    13.666749    52.048379    52.048391    63.998030    63.998030 
    51     0.615519   13.666749    13.666799    52.048379    52.048391    63.998017    63.998030 
    52     0.633284   13.679085    13.781666    52.008246    52.033451    63.997013    64.017643 
    53     0.651049   13.715040    14.110387    51.891321    51.990455    63.994075    64.074228 
    54     0.668814   13.773533    14.628971    51.700181    51.921956    63.989363    64.164994 
    55     0.686579   13.852843    15.303037    51.438781    51.832195    63.983090    64.285638 
    56     0.704343   13.950664    16.093236    51.111995    51.727047    63.975577    64.430869 
    57     0.722108   14.064192    16.959509    50.725202    51.614002    63.967221    64.594807 
    58     0.739873   14.190230    17.863757    50.283932    51.502061    63.958468    64.771380 
    59     0.757638   14.325257    18.771130    49.793616    51.401513    63.949851    64.954647 
    60     0.775403   14.465552    19.650470    49.259386    51.323629    63.941929    65.138968 
    61     0.793168   14.607286    20.474417    48.686066    51.280186    63.935333    65.319173 
    62     0.810932   14.746590    21.219524    48.078080    51.282765    63.930671    65.490563 
    63     0.828697   14.879621    21.866514    47.439496    51.342002    63.928601    65.648985 
    64     0.846462   15.002683    22.400620    46.773972    51.466602    63.929754    65.790855 
    65     0.864227   15.112170    22.812010    46.084817    51.662590    63.934775    65.913161 
    66     0.881992   15.204709    23.095974    45.374895    51.932569    63.944260    66.013535 
    67     0.899756   15.277101    23.252809    44.646686    52.275584    63.958753    66.090180 
    68     0.917521   15.326420    23.287387    43.902149    52.687309    63.978763    66.141991 
    69     0.935286   15.349976    23.208176    43.142722    53.160616    64.004712    66.168498 
    70     0.953051   15.345352    23.026247    42.369235    53.686402    64.036959    66.169973 
    71     0.970816   15.310377    22.754111    41.581863    54.254565    64.075778    66.147372 
    72     0.988581   15.243167    22.404674    40.779998    54.854777    64.121315    66.102355 
    73     1.006345   15.142099    21.990407    39.962275    55.477157    64.173672    66.037315 
    74     1.024110   15.005820    21.522717    39.126464    56.112666    64.232786    65.955290 
    75     1.041875   14.833252    21.011610    38.269502    56.753358    64.298545    65.859912 
    76     1.059640   14.623553    20.465391    37.387545    57.392524    64.370676    65.755335 
    77     1.077405   14.376138    19.890632    36.476019    58.024599    64.448833    65.646096 
    78     1.095169   14.090674    19.292156    35.529730    58.645119    64.532569    65.536931 
    79     1.112934   13.767062    18.673186    34.543084    59.250575    64.621339    65.432639 
    80     1.130699   13.405424    18.035433    33.510269    59.838253    64.714485    65.337807 
    81     1.148464   13.006110    17.379330    32.425518    60.406156    64.811289    65.256637 
    82     1.166229   12.569675    16.704309    31.283353    60.952734    64.910969    65.192726 
    83     1.183993   12.096872    16.008955    30.078825    61.476859    65.012670    65.148849 
    84     1.201758   11.588659    15.291346    28.807770    61.977639    65.115486    65.126892 
    85     1.219523   11.046163    14.549227    27.466963    62.454367    65.127673    65.218476 
    86     1.237288   10.470688    13.780327    26.054273    62.906349    65.150969    65.320686 
    87     1.255053    9.863698    12.982529    24.568683    63.332951    65.195565    65.421146 
    88     1.272818    9.226807    12.154041    23.010390    63.733469    65.259303    65.518868 
    89     1.290582    8.561775    11.293564    21.380723    64.107107    65.339245    65.612906 
    90     1.308347    7.870485    10.400400    19.682061    64.453036    65.431809    65.702321 
    91     1.326112    7.154943     9.474521    17.917800    64.770301    65.532989    65.786218 
    92     1.343877    6.417266     8.516613    16.092220    65.057922    65.638545    65.863755 
    93     1.361642    5.659665     7.528077    14.210377    65.314871    65.744139    65.934163 
    94     1.379406    4.884439     6.511009    12.277970    65.540130    65.845567    65.996699 
    95     1.397171    4.093965     5.468160    10.301271    65.732683    65.938837    66.050742 
    96     1.414936    3.290683     4.402871     8.287008    65.891638    66.020416    66.095746 
    97     1.432701    2.477092     3.318989     6.242274    66.016164    66.087204    66.131230 
    98     1.450466    1.655729     2.220786     4.174450    66.105615    66.136747    66.156844 
    99     1.468231    0.829167     1.112853     2.091119    66.159497    66.167209    66.172317 
   100     1.485995    0.000000     0.000000     0.000000    66.177486    66.177486    66.177486 
   101     1.485995    0.000000     0.000000     0.000000    66.177486    66.177486    66.177486 
   102     1.496874    0.571654     0.571654     1.307767    66.170097    66.174908    66.174908 
   103     1.507753    1.141705     1.141705     2.614204    66.147954    66.167184    66.167184 
   104     1.518631    1.708555     1.708555     3.917984    66.111132    66.154414    66.154414 
   105     1.529510    2.270616     2.270616     5.217783    66.059743    66.136734    66.136734 
   106     1.540389    2.826316     2.826316     6.512285    65.993984    66.114319    66.114319 
   107     1.551267    3.374105     3.374105     7.800182    65.914054    66.087415    66.087415 
   108     1.562146    3.912457     3.912457     9.080177    65.820238    66.056308    66.056308 
   109     1.573025    4.439880     4.439880    10.350989    65.712847    66.021334    66.021334 
   110     1.583903    4.954923     4.954923    11.611346    65.592239    65.982863    65.982863 
   111     1.594782    5.456178     5.456178    12.859999    65.458812    65.941292    65.941292 
   112     1.605661    5.942288     5.942288    14.095720    65.313024    65.897069    65.897069 
   113     1.616540    6.411960     6.411960    15.317283    65.155371    65.850663    65.850663 
   114     1.627418    6.863967     6.863967    16.523509    64.986361    65.802546    65.802546 
   115     1.638297    7.297154     7.297154    17.713233    64.806578    65.753239    65.753239 
   116     1.649176    7.710456     7.710456    18.885315    64.616615    65.703226    65.703226 
   117     1.660054    8.102895     8.102895    20.038627    64.417107    65.653026    65.653026 
   118     1.670933    8.473598     8.473598    21.172102    64.208734    65.603137    65.603137 
   119     1.681812    8.821797     8.821797    22.284661    63.992178    65.554028    65.554028 
   120     1.692690    9.146846     9.146846    23.375288    63.768183    65.506184    65.506184 
   121     1.703569    9.448226     9.448226    24.442979    63.537494    65.460039    65.460039 
   122     1.714448    9.725548     9.725548    25.486755    63.300878    65.415977    65.415977 
   123     1.725326    9.978570     9.978570    26.505672    63.059142    65.374381    65.374381 
   124     1.736205   10.207198    10.207198    27.498801    62.813103    65.335551    65.335551 
   125     1.747084   10.411490    10.411490    28.465275    62.563593    65.299770    65.299770 
   126     1.757962   10.591666    10.591666    29.404213    62.311480    65.267238    65.267238 
   127     1.768841   10.748110    10.748110    30.314771    62.057643    65.238102    65.238102 
   128     1.779720   10.881371    10.881371    31.196120    61.802951    65.212488    65.212488 
   129     1.790598   10.992166    10.992166    32.047466    61.548346    65.190407    65.190407 
   130     1.801477   11.081375    11.081375    32.867991    61.294720    65.171860    65.171860 
   131     1.812356   11.150045    11.150045    33.656913    61.043041    65.156772    65.156772 
   132     1.823234   11.199381    11.199381    34.413451    60.794275    65.145006    65.145006 
   133     1.834113   11.230738    11.230738    35.136825    60.549402    65.136402    65.136402 
   134     1.844992   11.245618    11.245618    35.826215    60.309451    65.130736    65.130736 
   135     1.855871   11.245653    11.245653    36.480830    60.075439    65.127748    65.127748 
   136     1.866749   11.232594    11.232594    37.099825    59.848456    65.127140    65.127140 
   137     1.877628   11.208290    11.208290    37.682332    59.629594    65.128616    65.128616 
   138     1.888507   11.174677    11.174677    38.227485    59.419994    65.131827    65.131827 
   139     1.899385   11.133744    11.133744    38.734340    59.220820    65.136451    65.136451 
   140     1.910264   11.087512    11.087512    39.201955    59.033251    65.142117    65.142117 
   141     1.921143   11.038008    11.038008    39.629352    58.858501    65.148477    65.148477 
   142     1.932021   10.987225    10.987225    40.015500    58.697798    65.155209    65.155209 
   143     1.942900   10.937092    10.937092    40.359420    58.552357    65.162004    65.162004 
   144     1.953779   10.889435    10.889435    40.660096    58.423343    65.168537    65.168537 
   145     1.964657   10.845939    10.845939    40.916586    58.311885    65.174563    65.174563 
   146     1.975536   10.808109    10.808109    41.127960    58.219049    65.179832    65.179832 
   147     1.986415   10.777238    10.777238    41.293461    58.145715    65.184146    65.184146 
   148     1.997293   10.754369    10.754369    41.412395    58.092652    65.187357    65.187357 
   149     2.008172   10.740271    10.740271    41.484278    58.060442    65.189329    65.189329 
   150     2.019051   10.735468    10.735468    41.508802    58.049432    65.189998    65.189998 
